Data from lamp5helium_sterk_Subt4__82__537.txt Node

Date: Wed Apr 09 10:18:38 CEST 2025
User: fys-lab-0081
Spectrometer: S04999
Trigger mode: 0
Resolution mode: 1024 pixels
Integration Time (sec): 1.000000E-1
Scans to average: 1
Nonlinearity correction enabled: false
Boxcar width: 0
Baseline correction enabled: true
XAxis mode: Wavelengths
Number of Pixels in Spectrum: 1024
>>>>>Begin Spectral Data<<<<<
336.42	2
336.877	-1
337.334	3
337.792	-1
338.249	7
338.706	1
339.164	-1
339.621	-5
340.079	2
340.536	8
340.994	7
341.452	-5
341.909	0
342.367	1
342.825	-1
343.283	1
343.741	2
344.198	2
344.656	3
345.114	-1
345.572	0
346.03	2
346.488	6
346.947	1
347.405	4
347.863	0
348.321	1
348.779	0
349.238	7
349.696	6
350.154	2
350.613	0
351.071	-1
351.53	10
351.988	6
352.447	-2
352.905	1
353.364	-2
353.823	4
354.282	3
354.74	-2
355.199	1
355.658	3
356.117	4
356.576	4
357.035	0
357.494	5
357.953	6
358.412	10
358.871	-2
359.33	0
359.789	7
360.249	6
360.708	7
361.167	0
361.626	5
362.086	5
362.545	9
363.005	9
363.464	4
363.924	3
364.383	9
364.843	2
365.303	6
365.762	4
366.222	4
366.682	10
367.142	10
367.601	7
368.061	5
368.521	12
368.981	8
369.441	9
369.901	10
370.361	4
370.821	8
371.282	9
371.742	13
372.202	8
372.662	17
373.123	7
373.583	11
374.043	9
374.504	8
374.964	7
375.425	6
375.885	9
376.346	8
376.806	12
377.267	16
377.728	14
378.188	12
378.649	10
379.11	12
379.571	11
380.032	11
380.493	8
380.954	14
381.414	13
381.876	12
382.337	16
382.798	18
383.259	20
383.72	16
384.181	15
384.642	13
385.104	21
385.565	29
386.026	21
386.488	19
386.949	20
387.411	23
387.872	23
388.334	27
388.795	20
389.257	28
389.719	27
390.181	23
390.642	29
391.104	22
391.566	16
392.028	35
392.49	26
392.952	32
393.414	31
393.876	30
394.338	29
394.8	29
395.262	31
395.724	34
396.186	35
396.648	34
397.111	39
397.573	35
398.035	36
398.498	37
398.96	36
399.423	35
399.885	42
400.348	40
400.81	44
401.273	42
401.736	43
402.198	44
402.661	49
403.124	46
403.587	47
404.049	50
404.512	53
404.975	55
405.438	47
405.901	51
406.364	54
406.827	55
407.29	53
407.754	54
408.217	53
408.68	54
409.143	53
409.607	62
410.07	57
410.533	60
410.997	61
411.46	56
411.924	59
412.387	61
412.851	63
413.314	66
413.778	65
414.242	62
414.705	70
415.169	67
415.633	69
416.097	71
416.561	75
417.024	73
417.488	75
417.952	75
418.416	77
418.88	73
419.344	73
419.809	72
420.273	77
420.737	74
421.201	73
421.665	79
422.13	82
422.594	82
423.059	87
423.523	84
423.987	85
424.452	90
424.916	93
425.381	94
425.846	91
426.31	89
426.775	96
427.24	107
427.704	93
428.169	98
428.634	100
429.099	100
429.564	97
430.029	105
430.494	103
430.959	107
431.424	100
431.889	102
432.354	108
432.819	109
433.284	113
433.75	110
434.215	118
434.68	120
435.146	126
435.611	143
436.077	150
436.542	149
437.008	141
437.473	142
437.939	146
438.404	147
438.87	150
439.336	144
439.801	143
440.267	146
440.733	156
441.199	158
441.665	153
442.131	160
442.596	161
443.062	162
443.529	164
443.995	168
444.461	172
444.927	187
445.393	184
445.859	194
446.325	197
446.792	211
447.258	216
447.724	209
448.191	220
448.657	225
449.124	236
449.59	230
450.057	247
450.523	239
450.99	247
451.457	246
451.923	251
452.39	249
452.857	256
453.324	254
453.791	259
454.257	257
454.724	262
455.191	271
455.658	260
456.125	278
456.592	274
457.059	277
457.527	283
457.994	295
458.461	296
458.928	302
459.396	299
459.863	307
460.33	309
460.798	314
461.265	313
461.732	315
462.2	321
462.668	317
463.135	328
463.603	316
464.07	322
464.538	322
465.006	336
465.474	325
465.941	329
466.409	334
466.877	323
467.345	331
467.813	336
468.281	333
468.749	339
469.217	344
469.685	340
470.153	351
470.621	353
471.09	355
471.558	373
472.026	371
472.494	379
472.963	390
473.431	400
473.9	410
474.368	424
474.837	423
475.305	429
475.774	445
476.242	456
476.711	455
477.18	467
477.648	469
478.117	474
478.586	473
479.055	471
479.524	482
479.993	476
480.462	472
480.93	475
481.399	475
481.869	480
482.338	481
482.807	483
483.276	483
483.745	492
484.214	499
484.684	509
485.153	515
485.622	518
486.092	536
486.561	528
487.031	540
487.5	552
487.97	569
488.439	580
488.909	603
489.378	619
489.848	617
490.318	636
490.787	655
491.257	670
491.727	666
492.197	683
492.667	676
493.137	684
493.607	695
494.077	704
494.547	696
495.017	702
495.487	709
495.957	723
496.427	707
496.897	707
497.368	721
497.838	713
498.308	725
498.779	733
499.249	745
499.719	758
500.19	761
500.66	763
501.131	766
501.602	786
502.072	779
502.543	792
503.014	826
503.484	826
503.955	856
504.426	889
504.897	891
505.368	907
505.838	924
506.309	945
506.78	977
507.251	1000
507.722	1016
508.194	1043
508.665	1059
509.136	1053
509.607	1091
510.078	1108
510.549	1109
511.021	1134
511.492	1137
511.964	1162
512.435	1182
512.906	1168
513.378	1185
513.849	1209
514.321	1215
514.793	1225
515.264	1243
515.736	1254
516.208	1282
516.679	1286
517.151	1296
517.623	1308
518.095	1340
518.567	1353
519.038	1370
519.51	1368
519.982	1396
520.454	1416
520.927	1438
521.399	1456
521.871	1481
522.343	1478
522.815	1497
523.287	1497
523.76	1507
524.232	1539
524.704	1544
525.177	1523
525.649	1532
526.122	1550
526.594	1529
527.067	1564
527.539	1583
528.012	1575
528.484	1565
528.957	1569
529.43	1568
529.903	1560
530.375	1625
530.848	1602
531.321	1618
531.794	1610
532.267	1648
532.74	1632
533.213	1634
533.686	1665
534.159	1662
534.632	1697
535.105	1712
535.578	1748
536.051	1760
536.525	1758
536.998	1769
537.471	1802
537.945	1780
538.418	1821
538.891	1833
539.365	1855
539.838	1864
540.312	1875
540.786	1895
541.259	1891
541.733	1912
542.206	1920
542.68	1892
543.154	1893
543.628	1901
544.101	1958
544.575	1933
545.049	1889
545.523	1934
545.997	1938
546.471	1964
546.945	1927
547.419	1953
547.893	1881
548.367	1929
548.842	1908
549.316	1912
549.79	1927
550.264	1907
550.739	1937
551.213	1939
551.687	1936
552.162	1965
552.636	1946
553.111	1937
553.585	1986
554.06	1969
554.534	1999
555.009	1990
555.484	2030
555.958	2061
556.433	2070
556.908	2097
557.383	2072
557.858	2132
558.333	2135
558.807	2125
559.282	2142
559.757	2203
560.232	2219
560.708	2188
561.183	2173
561.658	2203
562.133	2206
562.608	2191
563.083	2240
563.559	2187
564.034	2207
564.509	2209
564.985	2217
565.46	2187
565.936	2244
566.411	2239
566.887	2214
567.362	2224
567.838	2245
568.313	2267
568.789	2229
569.265	2223
569.74	2252
570.216	2240
570.692	2279
571.168	2274
571.644	2262
572.12	2265
572.596	2293
573.071	2309
573.547	2373
574.024	2397
574.5	2430
574.976	2451
575.452	2471
575.928	2489
576.404	2510
576.881	2608
577.357	2561
577.833	2569
578.31	2639
578.786	2680
579.262	2733
579.739	2689
580.215	2765
580.692	2748
581.169	2738
581.645	2743
582.122	2830
582.598	2823
583.075	2830
583.552	2853
584.029	2852
584.506	2825
584.982	2799
585.459	2862
585.936	2839
586.413	2870
586.89	2915
587.367	2899
587.844	2960
588.321	2949
588.799	2946
589.276	2906
589.753	2956
590.23	2981
590.707	2976
591.185	2962
591.662	2964
592.139	3014
592.617	3073
593.094	3062
593.572	3066
594.049	3107
594.527	3144
595.004	3164
595.482	3249
595.96	3214
596.437	3224
596.915	3315
597.393	3254
597.871	3329
598.349	3286
598.826	3366
599.304	3368
599.782	3439
600.26	3397
600.738	3498
601.216	3489
601.694	3520
602.173	3549
602.651	3540
603.129	3481
603.607	3519
604.085	3543
604.564	3537
605.042	3545
605.52	3533
605.999	3623
606.477	3543
606.956	3557
607.434	3600.5
607.913	3644
608.391	3624
608.87	3612
609.348	3572
609.827	3601
610.306	3650
610.785	3685
611.263	3718
611.742	3674
612.221	3612
612.7	3635
613.179	3663
613.658	3614
614.137	3677
614.616	3700
615.095	3630
615.574	3689
616.053	3735
616.532	3697
617.011	3706
617.491	3732
617.97	3731
618.449	3791
618.928	3826
619.408	3793
619.887	3834
620.367	3857
620.846	3911
621.326	3880
621.805	3967
622.285	3953
622.764	3982
623.244	3993
623.724	4031
624.203	4055
624.683	3987
625.163	4072
625.643	4058
626.123	4022
626.602	4130
627.082	4058
627.562	4051
628.042	4144
628.522	4094
629.002	4057
629.482	4083
629.963	4076
630.443	4057
630.923	4068
631.403	4096
631.883	4092
632.364	4098
632.844	4060
633.324	4095
633.805	4116
634.285	4064
634.766	4036
635.246	4046
635.727	4044
636.207	4060
636.688	4069
637.168	4072
637.649	4047
638.13	4027
638.611	4057
639.091	4049
639.572	4029
640.053	4012
640.534	4042
641.015	4036
641.496	3987
641.977	4066
642.458	4018
642.939	4058
643.42	4061
643.901	4069
644.382	4126
644.863	4102
645.345	4110
645.826	4110
646.307	4121
646.788	4198
647.27	4118
647.751	4120
648.233	4147
648.714	4057
649.196	4186
649.677	4181
650.159	4174
650.64	4122
651.122	4191
651.603	4147
652.085	4196
652.567	4213
653.049	4174
653.53	4162
654.012	4224
654.494	4161
654.976	4205
655.458	4167
655.94	4170
656.422	4242
656.904	4188
657.386	4145
657.868	4152
658.35	4139
658.833	4165
659.315	4177
659.797	4134
660.279	4130
660.762	4165
661.244	4120
661.726	4066
662.209	4065
662.691	4070
663.174	3997
663.656	4027
664.139	4032
664.621	3977
665.104	3955
665.587	4014
666.069	4048
666.552	4066
667.035	4017
667.517	4028
668	4061
668.483	4056
668.966	4027
669.449	4010
669.932	4018
670.415	4051
670.898	4027
671.381	4047
671.864	4061
672.347	4022
672.83	4023
673.313	4028
673.797	4011
674.28	4098
674.763	4123
675.247	4168
675.73	4127
676.213	4158
676.697	4175
677.18	4186
677.664	4196
678.147	4192
678.631	4211
679.114	4236
679.598	4227
680.082	4275
680.565	4283
681.049	4269
681.533	4255
682.017	4277
682.5	4272
682.984	4289
683.468	4279
683.952	4215
684.436	4304
684.92	4258
685.404	4291
685.888	4328
686.372	4315
686.856	4341
687.341	4379
687.825	4317
688.309	4322
688.793	4311
689.278	4264
689.762	4294
690.246	4287
690.731	4295
691.215	4311
691.7	4195
692.184	4262
692.669	4235
693.153	4274
693.638	4218
694.122	4203
694.607	4230
695.092	4171
695.577	4214
696.061	4122
696.546	4144
697.031	4136
697.516	4156
698.001	4161
698.486	4163
698.971	4226
699.456	4136
699.941	4133
700.426	4124
700.911	4169
701.396	4153
701.881	4216
702.366	4189
702.852	4171
703.337	4203
703.822	4180
704.308	4179
704.793	4199
705.278	4216
705.764	4239
706.249	4205
706.735	4177
707.22	4194
707.706	4123
708.191	4220
708.677	4232
709.163	4204
709.648	4222
710.134	4285
710.62	4234
711.106	4251
711.592	4312
712.077	4292
712.563	4182
713.049	4159
713.535	4243
714.021	4226
714.507	4219
714.993	4183
715.479	4235
715.966	4190
716.452	4185
716.938	4193
717.424	4067
717.91	4150
718.397	4123
718.883	4116
719.369	4132
719.856	4090
720.342	4136
720.829	4079
721.315	4116
721.802	4088
722.288	4110
722.775	3941
723.262	3837
723.748	3994
724.235	3989
724.722	4059
725.208	4006
725.695	4003
726.182	3975
726.669	3909
727.156	3919
727.643	3868
728.13	3854
728.617	3815
729.104	3826
729.591	3807
730.078	3839
730.565	3850
731.052	3798
731.539	3818
732.027	3788
732.514	3724
733.001	3767
733.488	3754
733.976	3742
734.463	3729
734.951	3717
735.438	3757
735.926	3728
736.413	3771
736.901	3746
737.388	3795
737.876	3790
738.364	3760
738.851	3768
739.339	3754
739.827	3787
740.314	3684
740.802	3710
741.29	3722
741.778	3668
742.266	3681
742.754	3697
743.242	3718
743.73	3639
744.218	3625
744.706	3580
745.194	3604
745.682	3579
746.17	3602
746.659	3639
747.147	3546
747.635	3563
748.123	3563
748.612	3515
749.1	3501
749.589	3545
750.077	3524
750.566	3498
751.054	3515
751.543	3523
752.031	3463
752.52	3452
753.008	3377
753.497	3380
753.986	3366
754.474	3351
754.963	3393
755.452	3350
755.941	3335
756.43	3335
756.919	3324
757.408	3304
757.896	3325
758.385	3330
758.875	3292
759.364	3246
759.853	3219
760.342	3167
760.831	3214
761.32	3176
761.809	3135
762.299	3156
762.788	3168
763.277	3153
763.767	3116
764.256	3109
764.745	3056
765.235	3092
765.724	2994
766.214	3053
766.703	3040
767.193	3004
767.683	3011
768.172	2958
768.662	2981
769.152	2968
769.641	2973
770.131	2903
770.621	2949
771.111	2901
771.601	2879
772.09	2846
772.58	2814
773.07	2829
773.56	2863
774.05	2829
774.54	2832
775.031	2821
775.521	2798
776.011	2778
776.501	2785
776.991	2725
777.482	2755
777.972	2692
778.462	2691
778.953	2714
779.443	2691
779.933	2685
780.424	2661
780.914	2675
781.405	2699
781.895	2674
782.386	2669
782.877	2653
783.367	2598
783.858	2574
784.349	2567
784.839	2543
785.33	2546
785.821	2538
786.312	2533
786.803	2547
787.293	2557
787.784	2508
788.275	2461
788.766	2435
789.257	2479
789.748	2415
790.24	2407
790.731	2426
791.222	2387
791.713	2371
792.204	2383
792.696	2320
793.187	2343
793.678	2324
794.169	2251
794.661	2291
795.152	2265
795.644	2242
796.135	2237
796.627	2257
797.118	2221
797.61	2209
798.101	2182
798.593	2205
799.085	2177
799.576	2186
800.068	2142
800.56	2138
801.052	2080
801.544	2082
802.035	2097
802.527	2063
803.019	2041
803.511	2022
804.003	2008
804.495	2018
804.987	1992
805.479	1954
805.971	1973
806.464	1980
806.956	1931
807.448	1923
807.94	1931
808.433	1916
808.925	1908
809.417	1884
809.91	1876
810.402	1820
810.894	1823
811.387	1841
811.879	1812
812.372	1832
812.865	1801
813.357	1802
813.85	1789
814.342	1783
814.835	1793
815.328	1767
815.821	1745
816.313	1746
816.806	1745
817.299	1726
817.792	1728
818.285	1701
818.778	1725
819.271	1724
819.764	1706
820.257	1716
820.75	1721
821.243	1722
821.736	1705
822.229	1717
822.722	1712
823.216	1748
