Data from lamp5helium_sterk_Subt4__39__494.txt Node

Date: Wed Apr 09 10:18:33 CEST 2025
User: fys-lab-0081
Spectrometer: S04999
Trigger mode: 0
Resolution mode: 1024 pixels
Integration Time (sec): 1.000000E-1
Scans to average: 1
Nonlinearity correction enabled: false
Boxcar width: 0
Baseline correction enabled: true
XAxis mode: Wavelengths
Number of Pixels in Spectrum: 1024
>>>>>Begin Spectral Data<<<<<
336.42	0
336.877	0
337.334	2
337.792	-1
338.249	2
338.706	1
339.164	2
339.621	-2
340.079	4
340.536	7
340.994	4
341.452	-3
341.909	2
342.367	-2
342.825	1
343.283	0
343.741	-1
344.198	5
344.656	0
345.114	0
345.572	1
346.03	4
346.488	6
346.947	-1
347.405	5
347.863	3
348.321	4
348.779	2
349.238	4
349.696	4
350.154	7
350.613	5
351.071	3
351.53	5
351.988	7
352.447	2
352.905	4
353.364	-3
353.823	1
354.282	4
354.74	0
355.199	3
355.658	3
356.117	3
356.576	5
357.035	4
357.494	5
357.953	5
358.412	7
358.871	-1
359.33	4
359.789	8
360.249	5
360.708	6
361.167	5
361.626	9
362.086	3
362.545	4
363.005	7
363.464	-2
363.924	4
364.383	10
364.843	6
365.303	8
365.762	6
366.222	3
366.682	7
367.142	13
367.601	6
368.061	1
368.521	12
368.981	6
369.441	9
369.901	7
370.361	7
370.821	5
371.282	10
371.742	10
372.202	9
372.662	11
373.123	12
373.583	11
374.043	7
374.504	1
374.964	7
375.425	11
375.885	7
376.346	13
376.806	8
377.267	12
377.728	12
378.188	11
378.649	14
379.11	12
379.571	9
380.032	14
380.493	10
380.954	12
381.414	9
381.876	13
382.337	15
382.798	19
383.259	18
383.72	14
384.181	17
384.642	15
385.104	25
385.565	25
386.026	20
386.488	17
386.949	23
387.411	24
387.872	21
388.334	23
388.795	22
389.257	27
389.719	25
390.181	23
390.642	28
391.104	27
391.566	24
392.028	35
392.49	23
392.952	30
393.414	27
393.876	30
394.338	31
394.8	28
395.262	29
395.724	33
396.186	38
396.648	35
397.111	35
397.573	35
398.035	37
398.498	40
398.96	34
399.423	35
399.885	45
400.348	40
400.81	50
401.273	35
401.736	42
402.198	44
402.661	46
403.124	47
403.587	47
404.049	51.5
404.512	56
404.975	52
405.438	49
405.901	54
406.364	55
406.827	55
407.29	56
407.754	55
408.217	54
408.68	55
409.143	55
409.607	58
410.07	57
410.533	57
410.997	62
411.46	55
411.924	61
412.387	62
412.851	60
413.314	67
413.778	67
414.242	66
414.705	68
415.169	71
415.633	68
416.097	70
416.561	68
417.024	74
417.488	77
417.952	74
418.416	74
418.88	75
419.344	73
419.809	77
420.273	77
420.737	76
421.201	75
421.665	82
422.13	80
422.594	79
423.059	85
423.523	86
423.987	87
424.452	91
424.916	92
425.381	95
425.846	93
426.31	95
426.775	98
427.24	102
427.704	100
428.169	104
428.634	105
429.099	102
429.564	102
430.029	105
430.494	103
430.959	106
431.424	104
431.889	106
432.354	109
432.819	109
433.284	111
433.75	110
434.215	117
434.68	121
435.146	126
435.611	144
436.077	149
436.542	147
437.008	141
437.473	140
437.939	144
438.404	147
438.87	153
439.336	149
439.801	145
440.267	147
440.733	160
441.199	157
441.665	150
442.131	163
442.596	159
443.062	156
443.529	170
443.995	173
444.461	169
444.927	189
445.393	185
445.859	194
446.325	197
446.792	211
447.258	209
447.724	216
448.191	226
448.657	221
449.124	232
449.59	229
450.057	245
450.523	242
450.99	252
451.457	248
451.923	257
452.39	253
452.857	258
453.324	254
453.791	265
454.257	268
454.724	267
455.191	271
455.658	265
456.125	276
456.592	273
457.059	276
457.527	281
457.994	293
458.461	295
458.928	305
459.396	302
459.863	306
460.33	310
460.798	313
461.265	317
461.732	314
462.2	328
462.668	326
463.135	331
463.603	315
464.07	325
464.538	326
465.006	335
465.474	327
465.941	326
466.409	332
466.877	322
467.345	336
467.813	336
468.281	336
468.749	341
469.217	338
469.685	342
470.153	351
470.621	354
471.09	360
471.558	373
472.026	376
472.494	384
472.963	390
473.431	402
473.9	412
474.368	423
474.837	430
475.305	436
475.774	441
476.242	461
476.711	455
477.18	468
477.648	467
478.117	473
478.586	473
479.055	472
479.524	480
479.993	477
480.462	471
480.93	477
481.399	475
481.869	487
482.338	482
482.807	493
483.276	490
483.745	495
484.214	506
484.684	518
485.153	514
485.622	516
486.092	538
486.561	529
487.031	544
487.5	556
487.97	570
488.439	585
488.909	599
489.378	622
489.848	624
490.318	642
490.787	653
491.257	670
491.727	667
492.197	688
492.667	680
493.137	692
493.607	697
494.077	711
494.547	697
495.017	702
495.487	708
495.957	731
496.427	709
496.897	716
497.368	717
497.838	720
498.308	732
498.779	739
499.249	751
499.719	761
500.19	769
500.66	772
501.131	779
501.602	789
502.072	778
502.543	802
503.014	833
503.484	826
503.955	857
504.426	893
504.897	896
505.368	912
505.838	929
506.309	956
506.78	982
507.251	1012
507.722	1022
508.194	1048
508.665	1061
509.136	1062
509.607	1098
510.078	1113
510.549	1120
511.021	1137
511.492	1144
511.964	1169
512.435	1185
512.906	1180
513.378	1194
513.849	1216
514.321	1220
514.793	1235
515.264	1252
515.736	1261
516.208	1288
516.679	1294
517.151	1303
517.623	1318
518.095	1342
518.567	1356
519.038	1377
519.51	1373
519.982	1410
520.454	1424
520.927	1445
521.399	1471
521.871	1485
522.343	1491
522.815	1502
523.287	1498
523.76	1517
524.232	1545
524.704	1556
525.177	1534
525.649	1539
526.122	1560
526.594	1531
527.067	1568
527.539	1583
528.012	1581
528.484	1576
528.957	1578
529.43	1576
529.903	1577
530.375	1633
530.848	1605
531.321	1621
531.794	1622
532.267	1660
532.74	1641
533.213	1642
533.686	1677
534.159	1663
534.632	1705
535.105	1724
535.578	1758
536.051	1761
536.525	1773
536.998	1775
537.471	1811
537.945	1791
538.418	1834
538.891	1844
539.365	1857
539.838	1878
540.312	1881
540.786	1913
541.259	1890
541.733	1925
542.206	1936
542.68	1903
543.154	1902
543.628	1917
544.101	1963
544.575	1948
545.049	1895
545.523	1948
545.997	1949
546.471	1973
546.945	1942
547.419	1965
547.893	1896
548.367	1940
548.842	1917
549.316	1922
549.79	1940
550.264	1918
550.739	1946
551.213	1939
551.687	1949
552.162	1972
552.636	1955
553.111	1945
553.585	2003
554.06	1983
554.534	2007
555.009	1997
555.484	2043
555.958	2074
556.433	2083
556.908	2103
557.383	2079
557.858	2150
558.333	2148
558.807	2142
559.282	2145
559.757	2217
560.232	2223
560.708	2207
561.183	2186
561.658	2218
562.133	2216
562.608	2196
563.083	2246
563.559	2201
564.034	2223
564.509	2218
564.985	2220
565.46	2202
565.936	2260
566.411	2257
566.887	2226
567.362	2246
567.838	2259
568.313	2280
568.789	2238
569.265	2233
569.74	2262
570.216	2252
570.692	2289
571.168	2286
571.644	2278
572.12	2268
572.596	2311
573.071	2327
573.547	2386
574.024	2414
574.5	2448
574.976	2462
575.452	2495
575.928	2507
576.404	2521
576.881	2621
577.357	2572
577.833	2584
578.31	2657
578.786	2696
579.262	2749
579.739	2709
580.215	2776
580.692	2758
581.169	2757
581.645	2753
582.122	2842
582.598	2842
583.075	2840
583.552	2865
584.029	2858
584.506	2847
584.982	2812
585.459	2881
585.936	2848
586.413	2881
586.89	2925
587.367	2916
587.844	2978
588.321	2968
588.799	2959
589.276	2923
589.753	2963
590.23	2988
590.707	2984
591.185	2980
591.662	2981
592.139	3034
592.617	3092
593.094	3079
593.572	3083
594.049	3121
594.527	3154
595.004	3186
595.482	3262
595.96	3223
596.437	3238
596.915	3327
597.393	3267
597.871	3335
598.349	3310
598.826	3382
599.304	3379
599.782	3443
600.26	3419
600.738	3513
601.216	3503
601.694	3539
602.173	3565
602.651	3555
603.129	3492
603.607	3548
604.085	3556
604.564	3557
605.042	3563
605.52	3543
605.999	3641
606.477	3557
606.956	3581
607.434	3624
607.913	3667
608.391	3643
608.87	3613
609.348	3585
609.827	3620
610.306	3660
610.785	3703
611.263	3734
611.742	3683
612.221	3629
612.7	3656
613.179	3680
613.658	3625
614.137	3695
614.616	3713
615.095	3641
615.574	3708
616.053	3757
616.532	3719
617.011	3726
617.491	3747
617.97	3755
618.449	3811
618.928	3841
619.408	3805
619.887	3851
620.367	3876
620.846	3926
621.326	3902
621.805	3989
622.285	3967
622.764	4006
623.244	4012
623.724	4060
624.203	4071
624.683	4002
625.163	4075
625.643	4083
626.123	4044
626.602	4156
627.082	4070
627.562	4070
628.042	4157
628.522	4119
629.002	4073
629.482	4099
629.963	4094
630.443	4064
630.923	4096
631.403	4112
631.883	4106
632.364	4119
632.844	4077
633.324	4115
633.805	4136
634.285	4088
634.766	4061
635.246	4062
635.727	4063
636.207	4079
636.688	4083
637.168	4091
637.649	4062
638.13	4056
638.611	4079
639.091	4073
639.572	4046
640.053	4020
640.534	4078
641.015	4052
641.496	4007
641.977	4086
642.458	4057
642.939	4067
643.42	4083
643.901	4084
644.382	4142
644.863	4126
645.345	4133
645.826	4136
646.307	4137
646.788	4213
647.27	4141
647.751	4134
648.233	4161
648.714	4072
649.196	4211
649.677	4195
650.159	4191
650.64	4147
651.122	4217
651.603	4168
652.085	4215
652.567	4233
653.049	4190
653.53	4185
654.012	4244
654.494	4174
654.976	4222
655.458	4196
655.94	4187
656.422	4255
656.904	4205
657.386	4171
657.868	4178
658.35	4161
658.833	4193
659.315	4198
659.797	4146
660.279	4153
660.762	4190
661.244	4142
661.726	4071
662.209	4090
662.691	4088
663.174	4023
663.656	4042
664.139	4046
664.621	4002
665.104	3975
665.587	4034
666.069	4063
666.552	4080
667.035	4030
667.517	4031
668	4082
668.483	4083
668.966	4049
669.449	4031
669.932	4036
670.415	4070
670.898	4034
671.381	4051
671.864	4077
672.347	4040
672.83	4054
673.313	4046
673.797	4025
674.28	4111
674.763	4145
675.247	4178
675.73	4150
676.213	4170
676.697	4186
677.18	4204
677.664	4214
678.147	4215
678.631	4236
679.114	4260
679.598	4252
680.082	4295
680.565	4300
681.049	4287
681.533	4279
682.017	4291
682.5	4286
682.984	4303
683.468	4310
683.952	4232
684.436	4328
684.92	4275
685.404	4310
685.888	4340
686.372	4324
686.856	4353
687.341	4391
687.825	4334
688.309	4345
688.793	4333
689.278	4275
689.762	4317
690.246	4295
690.731	4320
691.215	4335
691.7	4221
692.184	4280
692.669	4254
693.153	4288
693.638	4239
694.122	4224
694.607	4248
695.092	4180
695.577	4234
696.061	4143
696.546	4159
697.031	4159
697.516	4178
698.001	4183
698.486	4173
698.971	4244
699.456	4160
699.941	4158
700.426	4147
700.911	4194
701.396	4184
701.881	4220
702.366	4211
702.852	4195
703.337	4219
703.822	4196
704.308	4200
704.793	4227
705.278	4239
705.764	4256
706.249	4224
706.735	4190
707.22	4208
707.706	4138
708.191	4239
708.677	4253
709.163	4223
709.648	4236
710.134	4299
710.62	4258
711.106	4263
711.592	4335
712.077	4309
712.563	4190
713.049	4183
713.535	4259
714.021	4245
714.507	4234
714.993	4206
715.479	4258
715.966	4209
716.452	4206
716.938	4205
717.424	4082
717.91	4166
718.397	4143
718.883	4129
719.369	4147
719.856	4106
720.342	4157
720.829	4110
721.315	4129
721.802	4094
722.288	4116
722.775	3959
723.262	3845
723.748	4007
724.235	3995
724.722	4084
725.208	4021
725.695	4021
726.182	3995
726.669	3929
727.156	3933
727.643	3878
728.13	3868
728.617	3833
729.104	3837
729.591	3817
730.078	3855
730.565	3872
731.052	3809
731.539	3831
732.027	3798
732.514	3751
733.001	3791
733.488	3768
733.976	3751
734.463	3737
734.951	3734
735.438	3765
735.926	3748
736.413	3788
736.901	3765
737.388	3809
737.876	3811
738.364	3778
738.851	3782
739.339	3773
739.827	3804
740.314	3696
740.802	3726
741.29	3734
741.778	3688
742.266	3689
742.754	3703
743.242	3738
743.73	3654
744.218	3646
744.706	3603
745.194	3620
745.682	3596
746.17	3619
746.659	3644
747.147	3554
747.635	3579
748.123	3579
748.612	3529
749.1	3518
749.589	3559
750.077	3535
750.566	3508
751.054	3521
751.543	3541
752.031	3478
752.52	3467
753.008	3387
753.497	3396
753.986	3384
754.474	3369
754.963	3412
755.452	3368
755.941	3348
756.43	3344
756.919	3329
757.408	3321
757.896	3336
758.385	3345
758.875	3306
759.364	3257
759.853	3227
760.342	3166
760.831	3227
761.32	3197
761.809	3143
762.299	3157
762.788	3172
763.277	3165
763.767	3121
764.256	3126
764.745	3063
765.235	3108
765.724	3010
766.214	3059
766.703	3052
767.193	3014
767.683	3020
768.172	2975
768.662	2998
769.152	2978
769.641	2988
770.131	2921
770.621	2961
771.111	2912
771.601	2883
772.09	2854
772.58	2831
773.07	2837
773.56	2872
774.05	2838
774.54	2850
775.031	2829
775.521	2816
776.011	2789
776.501	2802
776.991	2741
777.482	2767
777.972	2708
778.462	2705
778.953	2726
779.443	2713
779.933	2701
780.424	2668
780.914	2693
781.405	2707
781.895	2687
782.386	2675
782.877	2668
783.367	2602
783.858	2587
784.349	2576
784.839	2551
785.33	2560
785.821	2556
786.312	2542
786.803	2555
787.293	2564
787.784	2518
788.275	2477
788.766	2450
789.257	2484
789.748	2425
790.24	2412
790.731	2447
791.222	2400
791.713	2382
792.204	2386
792.696	2330
793.187	2352
793.678	2324
794.169	2273
794.661	2298
795.152	2272
795.644	2250
796.135	2251
796.627	2270
797.118	2226
797.61	2214
798.101	2188
798.593	2207
799.085	2187
799.576	2190
800.068	2146
800.56	2143
801.052	2088
801.544	2092
802.035	2104
802.527	2072
803.019	2053
803.511	2027
804.003	2018
804.495	2026
804.987	1999
805.479	1961
805.971	1981
806.464	1981
806.956	1934
807.448	1931
807.94	1931
808.433	1924
808.925	1915
809.417	1890
809.91	1879
810.402	1820
810.894	1834
811.387	1854
811.879	1824
812.372	1838
812.865	1811
813.357	1805
813.85	1793
814.342	1785
814.835	1790
815.328	1781
815.821	1753
816.313	1749
816.806	1755
817.299	1728
817.792	1734
818.285	1709
818.778	1733
819.271	1732
819.764	1713
820.257	1723
820.75	1732
821.243	1736
821.736	1709
822.229	1720
822.722	1718
823.216	1754
