Data from lamp5helium_sterk_Subt4__23__478.txt Node

Date: Wed Apr 09 10:18:31 CEST 2025
User: fys-lab-0081
Spectrometer: S04999
Trigger mode: 0
Resolution mode: 1024 pixels
Integration Time (sec): 1.000000E-1
Scans to average: 1
Nonlinearity correction enabled: false
Boxcar width: 0
Baseline correction enabled: true
XAxis mode: Wavelengths
Number of Pixels in Spectrum: 1024
>>>>>Begin Spectral Data<<<<<
336.42	-2
336.877	-2
337.334	3
337.792	-1
338.249	2
338.706	3
339.164	2
339.621	-1
340.079	4
340.536	7
340.994	9
341.452	-2
341.909	-1
342.367	0
342.825	-1
343.283	-1
343.741	-3
344.198	0
344.656	2
345.114	4
345.572	3
346.03	2
346.488	2
346.947	0
347.405	3
347.863	1
348.321	6
348.779	1
349.238	6
349.696	3
350.154	4
350.613	0
351.071	4
351.53	6
351.988	2
352.447	1
352.905	0
353.364	-1
353.823	8
354.282	4
354.74	0
355.199	7
355.658	6
356.117	4
356.576	7
357.035	5
357.494	4
357.953	8
358.412	10
358.871	2
359.33	4
359.789	7
360.249	2
360.708	5
361.167	1
361.626	7
362.086	2
362.545	4
363.005	8
363.464	1
363.924	2
364.383	9
364.843	6
365.303	7
365.762	6
366.222	3
366.682	5
367.142	13
367.601	9
368.061	9
368.521	9
368.981	9
369.441	13
369.901	12
370.361	5
370.821	9
371.282	11
371.742	13
372.202	7
372.662	12
373.123	8
373.583	10
374.043	8
374.504	4
374.964	11
375.425	10
375.885	15
376.346	15
376.806	11
377.267	16
377.728	14
378.188	11
378.649	11
379.11	12
379.571	10
380.032	9
380.493	11
380.954	15
381.414	14
381.876	16
382.337	13
382.798	18
383.259	20
383.72	21
384.181	19
384.642	14
385.104	19
385.565	27
386.026	23
386.488	19
386.949	20
387.411	20
387.872	22
388.334	25
388.795	22
389.257	28
389.719	27
390.181	24
390.642	30
391.104	21
391.566	26
392.028	33
392.49	27
392.952	33
393.414	34
393.876	30
394.338	29
394.8	30
395.262	31
395.724	34
396.186	37
396.648	34
397.111	36
397.573	32
398.035	36
398.498	37
398.96	34
399.423	37
399.885	44
400.348	43
400.81	48
401.273	36
401.736	43
402.198	45
402.661	48
403.124	46
403.587	48
404.049	48
404.512	48
404.975	53
405.438	47
405.901	54
406.364	56
406.827	55
407.29	53
407.754	58
408.217	55
408.68	54
409.143	54
409.607	57
410.07	58
410.533	58
410.997	60
411.46	59
411.924	57
412.387	62
412.851	62
413.314	65
413.778	66
414.242	70
414.705	67
415.169	68
415.633	70
416.097	73
416.561	72
417.024	72
417.488	76
417.952	73
418.416	81
418.88	70
419.344	75
419.809	78
420.273	74
420.737	77
421.201	71
421.665	82
422.13	79
422.594	83
423.059	87
423.523	81
423.987	87
424.452	87
424.916	97
425.381	95
425.846	93
426.31	98
426.775	93
427.24	104
427.704	97
428.169	106
428.634	106
429.099	102
429.564	101
430.029	103
430.494	104
430.959	108
431.424	104
431.889	107
432.354	106
432.819	110
433.284	114
433.75	111
434.215	116
434.68	125
435.146	129
435.611	144
436.077	150
436.542	152
437.008	143
437.473	143
437.939	146
438.404	146
438.87	151
439.336	145
439.801	143
440.267	148
440.733	157
441.199	155
441.665	148
442.131	160
442.596	161
443.062	161
443.529	173
443.995	172
444.461	171
444.927	188
445.393	184
445.859	198
446.325	195
446.792	212
447.258	208
447.724	212
448.191	223
448.657	223
449.124	240
449.59	229
450.057	246
450.523	245
450.99	247
451.457	247
451.923	254
452.39	250
452.857	260
453.324	254
453.791	258
454.257	259
454.724	267
455.191	272
455.658	267
456.125	278
456.592	269
457.059	276
457.527	285
457.994	297
458.461	300
458.928	305
459.396	303
459.863	311
460.33	313
460.798	313
461.265	316
461.732	315
462.2	320
462.668	322
463.135	329
463.603	323
464.07	324
464.538	323
465.006	339
465.474	330
465.941	328
466.409	328
466.877	328
467.345	335
467.813	337
468.281	339
468.749	338
469.217	344
469.685	347
470.153	350
470.621	352
471.09	355
471.558	375
472.026	371
472.494	383
472.963	393
473.431	407
473.9	412
474.368	423
474.837	431
475.305	435
475.774	447
476.242	459
476.711	457
477.18	467
477.648	466
478.117	477
478.586	467
479.055	465
479.524	477
479.993	481
480.462	478
480.93	478
481.399	475
481.869	486
482.338	484
482.807	489
483.276	491
483.745	497
484.214	506
484.684	514
485.153	511
485.622	514
486.092	539
486.561	533
487.031	547
487.5	555
487.97	571
488.439	587
488.909	601
489.378	622
489.848	621
490.318	638
490.787	653
491.257	674
491.727	671
492.197	690
492.667	676
493.137	692
493.607	698
494.077	707
494.547	699
495.017	701
495.487	711
495.957	727
496.427	705
496.897	716
497.368	725
497.838	720
498.308	733
498.779	740
499.249	749
499.719	759
500.19	759
500.66	769
501.131	770
501.602	792
502.072	783
502.543	802
503.014	829
503.484	828
503.955	863
504.426	887
504.897	901
505.368	914
505.838	934
506.309	954
506.78	982
507.251	1010
507.722	1025
508.194	1046
508.665	1065
509.136	1054
509.607	1095
510.078	1111
510.549	1116
511.021	1140
511.492	1142
511.964	1168
512.435	1183
512.906	1173
513.378	1189
513.849	1216
514.321	1222
514.793	1232
515.264	1254
515.736	1259
516.208	1283
516.679	1295
517.151	1306
517.623	1321
518.095	1337
518.567	1361
519.038	1381
519.51	1375
519.982	1405
520.454	1421
520.927	1442
521.399	1466
521.871	1487
522.343	1493
522.815	1507
523.287	1499
523.76	1519
524.232	1545
524.704	1555
525.177	1535
525.649	1543
526.122	1565
526.594	1530
527.067	1572
527.539	1591
528.012	1584
528.484	1578
528.957	1582
529.43	1581
529.903	1569
530.375	1632
530.848	1608
531.321	1624
531.794	1621
532.267	1660
532.74	1642
533.213	1641
533.686	1674
534.159	1663
534.632	1709
535.105	1721
535.578	1758
536.051	1766
536.525	1774
536.998	1782
537.471	1815
537.945	1795
538.418	1835
538.891	1842
539.365	1861
539.838	1883
540.312	1882
540.786	1904
541.259	1902
541.733	1924
542.206	1930
542.68	1911
543.154	1901
543.628	1911
544.101	1976
544.575	1946
545.049	1897
545.523	1945
545.997	1955
546.471	1963
546.945	1935
547.419	1960
547.893	1896
548.367	1944
548.842	1912
549.316	1922
549.79	1939
550.264	1919
550.739	1949
551.213	1943
551.687	1947
552.162	1976
552.636	1956
553.111	1940
553.585	2008
554.06	1986
554.534	2006
555.009	2004
555.484	2046
555.958	2073
556.433	2090
556.908	2104
557.383	2088
557.858	2155
558.333	2150
558.807	2136
559.282	2151
559.757	2215
560.232	2236
560.708	2208
561.183	2188
561.658	2222
562.133	2212
562.608	2201
563.083	2254
563.559	2200
564.034	2221
564.509	2223
564.985	2229
565.46	2203
565.936	2254
566.411	2258
566.887	2236
567.362	2243
567.838	2254
568.313	2278
568.789	2242
569.265	2237
569.74	2268
570.216	2265
570.692	2285
571.168	2291
571.644	2280
572.12	2276
572.596	2311
573.071	2324
573.547	2385
574.024	2416
574.5	2445
574.976	2462
575.452	2501
575.928	2507
576.404	2524
576.881	2618
577.357	2582
577.833	2591
578.31	2651
578.786	2704
579.262	2753
579.739	2702
580.215	2773
580.692	2764
581.169	2752
581.645	2757
582.122	2844
582.598	2844
583.075	2844
583.552	2870
584.029	2871
584.506	2845
584.982	2819
585.459	2877
585.936	2850
586.413	2886
586.89	2932
587.367	2916
587.844	2981
588.321	2972
588.799	2962
589.276	2919
589.753	2975
590.23	2996
590.707	2986
591.185	2986
591.662	2985
592.139	3034
592.617	3087
593.094	3077
593.572	3087
594.049	3124
594.527	3163
595.004	3182
595.482	3257
595.96	3227
596.437	3250
596.915	3333
597.393	3269
597.871	3351
598.349	3304
598.826	3382
599.304	3378
599.782	3447
600.26	3419
600.738	3520
601.216	3509
601.694	3542
602.173	3564
602.651	3557
603.129	3496
603.607	3535
604.085	3560
604.564	3560
605.042	3567
605.52	3541
605.999	3636
606.477	3562
606.956	3576
607.434	3617.5
607.913	3659
608.391	3651
608.87	3633
609.348	3589
609.827	3621
610.306	3670
610.785	3712
611.263	3733
611.742	3695
612.221	3634
612.7	3656
613.179	3675
613.658	3636
614.137	3704
614.616	3718
615.095	3643
615.574	3712
616.053	3762
616.532	3725
617.011	3734
617.491	3746
617.97	3757
618.449	3808
618.928	3846
619.408	3810
619.887	3853
620.367	3873
620.846	3928
621.326	3907
621.805	3991
622.285	3973
622.764	4008
623.244	4021
623.724	4059
624.203	4071
624.683	4004
625.163	4090
625.643	4084
626.123	4048
626.602	4152
627.082	4073
627.562	4078
628.042	4170
628.522	4121
629.002	4081
629.482	4102
629.963	4094
630.443	4067
630.923	4092
631.403	4118
631.883	4103
632.364	4113
632.844	4085
633.324	4110
633.805	4132
634.285	4094
634.766	4059
635.246	4068
635.727	4067
636.207	4078
636.688	4091
637.168	4091
637.649	4065
638.13	4048
638.611	4083
639.091	4073
639.572	4045
640.053	4028
640.534	4066
641.015	4057
641.496	4012
641.977	4093
642.458	4059
642.939	4070
643.42	4085
643.901	4087
644.382	4140
644.863	4136
645.345	4141
645.826	4132
646.307	4140
646.788	4222
647.27	4137
647.751	4139
648.233	4171
648.714	4082
649.196	4205
649.677	4203
650.159	4188
650.64	4150
651.122	4223
651.603	4169
652.085	4217
652.567	4240
653.049	4187
653.53	4193
654.012	4237
654.494	4176
654.976	4207
655.458	4197
655.94	4202
656.422	4263
656.904	4214
657.386	4180
657.868	4183
658.35	4156
658.833	4192
659.315	4202
659.797	4151
660.279	4159
660.762	4187
661.244	4138
661.726	4073
662.209	4086
662.691	4086
663.174	4022
663.656	4046
664.139	4048
664.621	4001
665.104	3977
665.587	4032
666.069	4078
666.552	4090
667.035	4035
667.517	4048
668	4082
668.483	4085
668.966	4047
669.449	4038
669.932	4035
670.415	4070
670.898	4037
671.381	4055
671.864	4093
672.347	4048
672.83	4047
673.313	4044
673.797	4029
674.28	4116
674.763	4153
675.247	4177
675.73	4161
676.213	4177
676.697	4198
677.18	4203
677.664	4220
678.147	4215
678.631	4237
679.114	4265
679.598	4245
680.082	4291
680.565	4294
681.049	4284
681.533	4277
682.017	4289
682.5	4285
682.984	4308
683.468	4310
683.952	4234
684.436	4321
684.92	4291
685.404	4321
685.888	4346
686.372	4328
686.856	4366
687.341	4419
687.825	4340
688.309	4337
688.793	4331
689.278	4284
689.762	4327
690.246	4299
690.731	4320
691.215	4344
691.7	4222
692.184	4267
692.669	4253
693.153	4298
693.638	4235
694.122	4231
694.607	4249
695.092	4196
695.577	4230
696.061	4153
696.546	4171
697.031	4156
697.516	4180
698.001	4183
698.486	4180
698.971	4241
699.456	4164
699.941	4156
700.426	4150
700.911	4196
701.396	4174
701.881	4231
702.366	4214
702.852	4202
703.337	4217
703.822	4191
704.308	4197
704.793	4230
705.278	4238
705.764	4261
706.249	4227
706.735	4192
707.22	4213
707.706	4141
708.191	4229
708.677	4257
709.163	4232
709.648	4242
710.134	4293
710.62	4259
711.106	4273
711.592	4349
712.077	4312
712.563	4198
713.049	4184
713.535	4271
714.021	4235
714.507	4239
714.993	4209
715.479	4259
715.966	4203
716.452	4189
716.938	4205
717.424	4086
717.91	4165
718.397	4147
718.883	4132
719.369	4148
719.856	4112
720.342	4166
720.829	4098
721.315	4132
721.802	4100
722.288	4123
722.775	3963
723.262	3844
723.748	4017
724.235	4001
724.722	4088
725.208	4027
725.695	4027
726.182	4004
726.669	3935
727.156	3927
727.643	3881
728.13	3871
728.617	3831
729.104	3836
729.591	3818
730.078	3859
730.565	3871
731.052	3820
731.539	3831
732.027	3809
732.514	3754
733.001	3786
733.488	3773
733.976	3757
734.463	3740
734.951	3736
735.438	3783
735.926	3745
736.413	3793
736.901	3763
737.388	3812
737.876	3806
738.364	3774
738.851	3786
739.339	3776
739.827	3810
740.314	3703
740.802	3726
741.29	3742
741.778	3684
742.266	3700
742.754	3708
743.242	3744
743.73	3656
744.218	3653
744.706	3600
745.194	3631
745.682	3598
746.17	3621
746.659	3652
747.147	3561
747.635	3588
748.123	3564
748.612	3526
749.1	3526
749.589	3565
750.077	3534
750.566	3503
751.054	3522
751.543	3537
752.031	3474
752.52	3460
753.008	3387
753.497	3400
753.986	3388
754.474	3371
754.963	3406
755.452	3370
755.941	3352
756.43	3347
756.919	3334
757.408	3321
757.896	3336
758.385	3352
758.875	3302
759.364	3255
759.853	3234
760.342	3178
760.831	3226
761.32	3202
761.809	3145
762.299	3165
762.788	3184
763.277	3163
763.767	3124
764.256	3127
764.745	3069
765.235	3104
765.724	3016
766.214	3076
766.703	3053
767.193	3019
767.683	3031
768.172	2972
768.662	2995
769.152	2986
769.641	2984
770.131	2922
770.621	2954
771.111	2914
771.601	2898
772.09	2861
772.58	2826
773.07	2836
773.56	2876
774.05	2842
774.54	2845
775.031	2832
775.521	2806
776.011	2793
776.501	2799
776.991	2742
777.482	2770
777.972	2706
778.462	2708
778.953	2723
779.443	2708
779.933	2704
780.424	2671
780.914	2699
781.405	2717
781.895	2683
782.386	2678
782.877	2663
783.367	2609
783.858	2587
784.349	2579
784.839	2553
785.33	2560
785.821	2554
786.312	2541
786.803	2554
787.293	2565
787.784	2520
788.275	2474
788.766	2446
789.257	2486
789.748	2433
790.24	2415
790.731	2433
791.222	2400
791.713	2387
792.204	2391
792.696	2333
793.187	2351
793.678	2338
794.169	2265
794.661	2294
795.152	2272
795.644	2252
796.135	2248
796.627	2269
797.118	2232
797.61	2219
798.101	2191
798.593	2214
799.085	2183
799.576	2191
800.068	2155
800.56	2149
801.052	2095
801.544	2093
802.035	2104
802.527	2080
803.019	2052
803.511	2031
804.003	2016
804.495	2025
804.987	2002
805.479	1957
805.971	1982
806.464	1983
806.956	1936
807.448	1931
807.94	1938
808.433	1923
808.925	1916
809.417	1899
809.91	1881
810.402	1832
810.894	1836
811.387	1845
811.879	1823
812.372	1842
812.865	1805
813.357	1812
813.85	1795
814.342	1790
814.835	1786
815.328	1786
815.821	1760
816.313	1749
816.806	1752
817.299	1729
817.792	1735
818.285	1717
818.778	1732
819.271	1731
819.764	1717
820.257	1725
820.75	1728
821.243	1724
821.736	1711
822.229	1727
822.722	1718
823.216	1757
