Data from lamp5helium_sterk_Subt2__37__37.txt Node

Date: Wed Apr 09 11:04:38 CEST 2025
User: fys-lab-0081
Spectrometer: S04999
Trigger mode: 0
Resolution mode: 1024 pixels
Integration Time (sec): 1.000000E-1
Scans to average: 1
Nonlinearity correction enabled: false
Boxcar width: 0
Baseline correction enabled: true
XAxis mode: Wavelengths
Number of Pixels in Spectrum: 1024
>>>>>Begin Spectral Data<<<<<
336.42	-2
336.877	1
337.334	0
337.792	5
338.249	2
338.706	4
339.164	0
339.621	1
340.079	3
340.536	1
340.994	1
341.452	4
341.909	8
342.367	1
342.825	-3
343.283	3
343.741	0
344.198	0
344.656	-1
345.114	-2
345.572	2
346.03	0
346.488	1
346.947	-2
347.405	3
347.863	2
348.321	0
348.779	3
349.238	2
349.696	2
350.154	0
350.613	0
351.071	1
351.53	4
351.988	4
352.447	-2
352.905	-4
353.364	-2
353.823	-2
354.282	-2
354.74	-7
355.199	5
355.658	4
356.117	-1
356.576	-1
357.035	-5
357.494	3
357.953	-2
358.412	1
358.871	1
359.33	1
359.789	-1
360.249	-1
360.708	0
361.167	-1
361.626	4
362.086	1
362.545	-1
363.005	-1
363.464	1
363.924	1
364.383	-2
364.843	2
365.303	4
365.762	5
366.222	2
366.682	1
367.142	4
367.601	1
368.061	0
368.521	3
368.981	0
369.441	4
369.901	0
370.361	6
370.821	2
371.282	4
371.742	4
372.202	4
372.662	6
373.123	0
373.583	1
374.043	4
374.504	1
374.964	3
375.425	-2
375.885	-1
376.346	2
376.806	9
377.267	-4
377.728	4
378.188	3
378.649	1
379.11	3
379.571	-1
380.032	6
380.493	3
380.954	7
381.414	4
381.876	2
382.337	5
382.798	7
383.259	4
383.72	5
384.181	1
384.642	1
385.104	6
385.565	6
386.026	8
386.488	6
386.949	9
387.411	5
387.872	5
388.334	14
388.795	9
389.257	10
389.719	2
390.181	8
390.642	8
391.104	7
391.566	6
392.028	8
392.49	12
392.952	12
393.414	11
393.876	8
394.338	5
394.8	9
395.262	6
395.724	9
396.186	12
396.648	8
397.111	12
397.573	14
398.035	10
398.498	13
398.96	13
399.423	14
399.885	11
400.348	11
400.81	13
401.273	10
401.736	9
402.198	18
402.661	13
403.124	8
403.587	14
404.049	14
404.512	14
404.975	14
405.438	21
405.901	19
406.364	15
406.827	15
407.29	14
407.754	13
408.217	18
408.68	19
409.143	20
409.607	15
410.07	15
410.533	21
410.997	19
411.46	20
411.924	23
412.387	24
412.851	18
413.314	20
413.778	19
414.242	22
414.705	26
415.169	24
415.633	20
416.097	19
416.561	22
417.024	22
417.488	25
417.952	25
418.416	23
418.88	21
419.344	18
419.809	22
420.273	22
420.737	23
421.201	24
421.665	23
422.13	25
422.594	31
423.059	29
423.523	28
423.987	25
424.452	32
424.916	28
425.381	27
425.846	30
426.31	36
426.775	33
427.24	31
427.704	34
428.169	34
428.634	37
429.099	37
429.564	37
430.029	35
430.494	33
430.959	33
431.424	33
431.889	41
432.354	38
432.819	36
433.284	44
433.75	40
434.215	42
434.68	37
435.146	35
435.611	42
436.077	43
436.542	40
437.008	39
437.473	45
437.939	45
438.404	49
438.87	50
439.336	48
439.801	50
440.267	49
440.733	52
441.199	46
441.665	51
442.131	55
442.596	52
443.062	55
443.529	58
443.995	56
444.461	56
444.927	63
445.393	58
445.859	63
446.325	65
446.792	70
447.258	71
447.724	74
448.191	71
448.657	70
449.124	65
449.59	69
450.057	82
450.523	83
450.99	81
451.457	81
451.923	84
452.39	81
452.857	87
453.324	80
453.791	85
454.257	88
454.724	92
455.191	88
455.658	87
456.125	90
456.592	88
457.059	96
457.527	92
457.994	92
458.461	97
458.928	103
459.396	102
459.863	100
460.33	103
460.798	104
461.265	107
461.732	104
462.2	106
462.668	105
463.135	106
463.603	107
464.07	115
464.538	106
465.006	111
465.474	110
465.941	110
466.409	111
466.877	110
467.345	109
467.813	106
468.281	111
468.749	115
469.217	115
469.685	116
470.153	122
470.621	119
471.09	122
471.558	117
472.026	129
472.494	129
472.963	131
473.431	135
473.9	139
474.368	146
474.837	143
475.305	150
475.774	147
476.242	150
476.711	154
477.18	157
477.648	159
478.117	156
478.586	158
479.055	157
479.524	160
479.993	161
480.462	162
480.93	160
481.399	161
481.869	161
482.338	163
482.807	167
483.276	167
483.745	164
484.214	170
484.684	175
485.153	172
485.622	177
486.092	179
486.561	175
487.031	189
487.5	187
487.97	193
488.439	196
488.909	201
489.378	205
489.848	210
490.318	215
490.787	229
491.257	227
491.727	224
492.197	234
492.667	235
493.137	240
493.607	238
494.077	245
494.547	235
495.017	235
495.487	244
495.957	254
496.427	246
496.897	246
497.368	253
497.838	249
498.308	252
498.779	252
499.249	258
499.719	261
500.19	265
500.66	263
501.131	267
501.602	275
502.072	269
502.543	280
503.014	293
503.484	293
503.955	297
504.426	303
504.897	311
505.368	316
505.838	326
506.309	329
506.78	345
507.251	353
507.722	359
508.194	364
508.665	373
509.136	375
509.607	387
510.078	387
510.549	390
511.021	400
511.492	402
511.964	408
512.435	408
512.906	410
513.378	415
513.849	427
514.321	424
514.793	431
515.264	439
515.736	440
516.208	461
516.679	453
517.151	459
517.623	468
518.095	472
518.567	480
519.038	485
519.51	489
519.982	496
520.454	497
520.927	504
521.399	513
521.871	520
522.343	525
522.815	525
523.287	524
523.76	533
524.232	543
524.704	545
525.177	541
525.649	540
526.122	553
526.594	542
527.067	548
527.539	560
528.012	563
528.484	560
528.957	566
529.43	567
529.903	561
530.375	580
530.848	570
531.321	580
531.794	588
532.267	599
532.74	591
533.213	590
533.686	603
534.159	594
534.632	614
535.105	613
535.578	628
536.051	631
536.525	632
536.998	634
537.471	651
537.945	643
538.418	652
538.891	655
539.365	669
539.838	674
540.312	668
540.786	669
541.259	672
541.733	692
542.206	695
542.68	678
543.154	682
543.628	687
544.101	705
544.575	689
545.049	672
545.523	687
545.997	689
546.471	693
546.945	689
547.419	702
547.893	678
548.367	700
548.842	684
549.316	693
549.79	698
550.264	695
550.739	702
551.213	710
551.687	707
552.162	711
552.636	715
553.111	710
553.585	737
554.06	727
554.534	735
555.009	739
555.484	754
555.958	759
556.433	763
556.908	775
557.383	763
557.858	785
558.333	787
558.807	784
559.282	799
559.757	818
560.232	812
560.708	795
561.183	801
561.658	814
562.133	815
562.608	808
563.083	829
563.559	818
564.034	807
564.509	822
564.985	823
565.46	815
565.936	834
566.411	825
566.887	821
567.362	822
567.838	823
568.313	833
568.789	830
569.265	829
569.74	837
570.216	829
570.692	844
571.168	841
571.644	850
572.12	844
572.596	854
573.071	860
573.547	891
574.024	900
574.5	905
574.976	914
575.452	926
575.928	939
576.404	939
576.881	968
577.357	956
577.833	968
578.31	982
578.786	999
579.262	1012
579.739	1000
580.215	1037
580.692	1032
581.169	1021
581.645	1024
582.122	1057
582.598	1060
583.075	1057
583.552	1061
584.029	1063
584.506	1056
584.982	1051
585.459	1070
585.936	1059
586.413	1072
586.89	1101
587.367	1091
587.844	1111
588.321	1097
588.799	1100
589.276	1088
589.753	1111
590.23	1122
590.707	1119
591.185	1121
591.662	1137
592.139	1137
592.617	1161
593.094	1156
593.572	1168
594.049	1178
594.527	1182
595.004	1190
595.482	1225
595.96	1217
596.437	1208
596.915	1241
597.393	1228
597.871	1263
598.349	1246
598.826	1268
599.304	1273
599.782	1305
600.26	1301
600.738	1327
601.216	1319
601.694	1327
602.173	1334
602.651	1344
603.129	1341
603.607	1347
604.085	1358
604.564	1369
605.042	1374
605.52	1370
605.999	1393
606.477	1351
606.956	1366
607.434	1387
607.913	1408
608.391	1398
608.87	1383
609.348	1366
609.827	1379
610.306	1382
610.785	1387
611.263	1392
611.742	1384
612.221	1369
612.7	1387
613.179	1395
613.658	1380
614.137	1405
614.616	1427
615.095	1405
615.574	1421
616.053	1433
616.532	1415
617.011	1432
617.491	1432
617.97	1432
618.449	1447
618.928	1470
619.408	1464
619.887	1473
620.367	1487
620.846	1497
621.326	1486
621.805	1522
622.285	1519
622.764	1538
623.244	1543
623.724	1545
624.203	1565
624.683	1534
625.163	1566
625.643	1560
626.123	1552
626.602	1584
627.082	1557
627.562	1563
628.042	1586
628.522	1583
629.002	1575
629.482	1575
629.963	1587
630.443	1570
630.923	1577
631.403	1594
631.883	1595
632.364	1601
632.844	1593
633.324	1595
633.805	1591
634.285	1574
634.766	1566
635.246	1570
635.727	1582
636.207	1585
636.688	1572
637.168	1570
637.649	1564
638.13	1564
638.611	1585
639.091	1576
639.572	1569
640.053	1556
640.534	1573
641.015	1576
641.496	1555
641.977	1580
642.458	1573
642.939	1577
643.42	1583
643.901	1587
644.382	1604
644.863	1602
645.345	1598
645.826	1604
646.307	1600
646.788	1630
647.27	1608
647.751	1602
648.233	1622
648.714	1589
649.196	1630
649.677	1619
650.159	1619
650.64	1600
651.122	1635
651.603	1609
652.085	1630
652.567	1645
653.049	1635
653.53	1640
654.012	1662
654.494	1632
654.976	1661
655.458	1648
655.94	1647
656.422	1666
656.904	1636
657.386	1616
657.868	1623
658.35	1610
658.833	1628
659.315	1636
659.797	1606
660.279	1603
660.762	1611
661.244	1597
661.726	1584
662.209	1595
662.691	1602
663.174	1566
663.656	1575
664.139	1588
664.621	1570
665.104	1565
665.587	1588
666.069	1596
666.552	1595
667.035	1577
667.517	1585
668	1604
668.483	1605
668.966	1591
669.449	1585
669.932	1580
670.415	1606
670.898	1596
671.381	1603
671.864	1604
672.347	1581
672.83	1583
673.313	1591
673.797	1582
674.28	1618
674.763	1616
675.247	1621
675.73	1606
676.213	1620
676.697	1633
677.18	1639
677.664	1649
678.147	1643
678.631	1659
679.114	1678
679.598	1675
680.082	1702
680.565	1691
681.049	1683
681.533	1679
682.017	1699
682.5	1686
682.984	1693
683.468	1699
683.952	1668
684.436	1712
684.92	1693
685.404	1705
685.888	1711
686.372	1695
686.856	1700
687.341	1720
687.825	1694
688.309	1697
688.793	1715
689.278	1696
689.762	1713
690.246	1700
690.731	1693
691.215	1705
691.7	1663
692.184	1693
692.669	1681
693.153	1687
693.638	1654
694.122	1668
694.607	1687
695.092	1660
695.577	1686
696.061	1659
696.546	1665
697.031	1658
697.516	1676
698.001	1685
698.486	1679
698.971	1695
699.456	1647
699.941	1653
700.426	1654
700.911	1675
701.396	1665
701.881	1679
702.366	1668
702.852	1662
703.337	1660
703.822	1655
704.308	1657
704.793	1673
705.278	1669
705.764	1671
706.249	1658
706.735	1665
707.22	1682
707.706	1667
708.191	1680
708.677	1679
709.163	1666
709.648	1676
710.134	1705
710.62	1699
711.106	1704
711.592	1718
712.077	1698
712.563	1656
713.049	1653
713.535	1698
714.021	1695
714.507	1686
714.993	1668
715.479	1680
715.966	1667
716.452	1674
716.938	1682
717.424	1621
717.91	1660
718.397	1645
718.883	1632
719.369	1643
719.856	1621
720.342	1644
720.829	1624
721.315	1633
721.802	1618
722.288	1620
722.775	1566
723.262	1521
723.748	1593
724.235	1584
724.722	1605
725.208	1573
725.695	1571
726.182	1572
726.669	1557
727.156	1585
727.643	1566
728.13	1549
728.617	1537
729.104	1543
729.591	1532
730.078	1545
730.565	1542
731.052	1522
731.539	1530
732.027	1527
732.514	1503
733.001	1519
733.488	1505
733.976	1515
734.463	1510
734.951	1506
735.438	1518
735.926	1494
736.413	1507
736.901	1502
737.388	1514
737.876	1510
738.364	1496
738.851	1506
739.339	1509
739.827	1529
740.314	1470
740.802	1478
741.29	1487
741.778	1468
742.266	1472
742.754	1479
743.242	1495
743.73	1472
744.218	1465
744.706	1454
745.194	1481
745.682	1475
746.17	1478
746.659	1472
747.147	1442
747.635	1449
748.123	1440
748.612	1418
749.1	1408
749.589	1416
750.077	1415
750.566	1408
751.054	1419
751.543	1431
752.031	1396
752.52	1391
753.008	1360
753.497	1371
753.986	1369
754.474	1364
754.963	1378
755.452	1347
755.941	1339
756.43	1337
756.919	1332
757.408	1323
757.896	1333
758.385	1342
758.875	1327
759.364	1318
759.853	1304
760.342	1274
760.831	1307
761.32	1296
761.809	1273
762.299	1281
762.788	1286
763.277	1291
763.767	1277
764.256	1281
764.745	1263
765.235	1283
765.724	1253
766.214	1272
766.703	1261
767.193	1237
767.683	1238
768.172	1212
768.662	1223
769.152	1217
769.641	1220
770.131	1184
770.621	1207
771.111	1187
771.601	1181
772.09	1173
772.58	1158
773.07	1165
773.56	1168
774.05	1145
774.54	1141
775.031	1126
775.521	1127
776.011	1122
776.501	1134
776.991	1109
777.482	1113
777.972	1094
778.462	1100
778.953	1102
779.443	1095
779.933	1088
780.424	1088
780.914	1105
781.405	1106
781.895	1099
782.386	1096
782.877	1089
783.367	1077
783.858	1068
784.349	1065
784.839	1053
785.33	1065
785.821	1065
786.312	1058
786.803	1059
787.293	1064
787.784	1054
788.275	1037
788.766	1028
789.257	1050
789.748	1029
790.24	1014
790.731	1014
791.222	995
791.713	993
792.204	1003
792.696	971
793.187	975
793.678	965
794.169	938
794.661	953
795.152	939
795.644	926
796.135	936
796.627	928
797.118	914
797.61	908
798.101	894
798.593	907
799.085	889
799.576	890
800.068	894
800.56	899
801.052	875
801.544	879
802.035	878
802.527	858
803.019	855
803.511	847
804.003	846
804.495	849
804.987	842
805.479	837
805.971	834
806.464	842
806.956	814
807.448	808
807.94	809
808.433	814
808.925	805
809.417	804
809.91	800
810.402	777
810.894	786
811.387	790
811.879	786
812.372	789
812.865	777
813.357	770
813.85	770
814.342	758
814.835	756
815.328	753
815.821	744
816.313	751
816.806	750
817.299	743
817.792	748
818.285	729
818.778	740
819.271	742
819.764	730
820.257	731
820.75	728
821.243	732
821.736	722
822.229	727
822.722	716
823.216	737
