Data from lamp5helium_sterk_Subt4__61__516.txt Node

Date: Wed Apr 09 10:18:36 CEST 2025
User: fys-lab-0081
Spectrometer: S04999
Trigger mode: 0
Resolution mode: 1024 pixels
Integration Time (sec): 1.000000E-1
Scans to average: 1
Nonlinearity correction enabled: false
Boxcar width: 0
Baseline correction enabled: true
XAxis mode: Wavelengths
Number of Pixels in Spectrum: 1024
>>>>>Begin Spectral Data<<<<<
336.42	7
336.877	0
337.334	0
337.792	-1
338.249	8
338.706	1
339.164	2
339.621	-1
340.079	7
340.536	7
340.994	11
341.452	-5
341.909	4
342.367	-6
342.825	-1
343.283	-1
343.741	0
344.198	2
344.656	6
345.114	1
345.572	0
346.03	3
346.488	4
346.947	2
347.405	5
347.863	1
348.321	6
348.779	2
349.238	5
349.696	4
350.154	6
350.613	-3
351.071	3
351.53	5
351.988	7
352.447	0
352.905	3
353.364	-2
353.823	3
354.282	5
354.74	-1
355.199	6
355.658	3
356.117	2
356.576	10
357.035	6
357.494	5
357.953	4
358.412	7
358.871	2
359.33	5
359.789	5
360.249	-1
360.708	5
361.167	3
361.626	8
362.086	5
362.545	8
363.005	7
363.464	1
363.924	7
364.383	7
364.843	8
365.303	7
365.762	8
366.222	3
366.682	6
367.142	10
367.601	6
368.061	3
368.521	10
368.981	4
369.441	7
369.901	10
370.361	8
370.821	5
371.282	9
371.742	9
372.202	6
372.662	12
373.123	11
373.583	9
374.043	11
374.504	6
374.964	8
375.425	11
375.885	8
376.346	10
376.806	10
377.267	12
377.728	16
378.188	10
378.649	12
379.11	13
379.571	12
380.032	14
380.493	11
380.954	15
381.414	12
381.876	14
382.337	15
382.798	18
383.259	17
383.72	16
384.181	19
384.642	15
385.104	18
385.565	29
386.026	17
386.488	16
386.949	21
387.411	24
387.872	21
388.334	25
388.795	26
389.257	28
389.719	25
390.181	22
390.642	30
391.104	26
391.566	27
392.028	35
392.49	24
392.952	31
393.414	31
393.876	26
394.338	33
394.8	30
395.262	30
395.724	34
396.186	36
396.648	33
397.111	37
397.573	36
398.035	38
398.498	39
398.96	39
399.423	37
399.885	39
400.348	37
400.81	46
401.273	37
401.736	45
402.198	44
402.661	47
403.124	43
403.587	49
404.049	51
404.512	53
404.975	55
405.438	48
405.901	52
406.364	53
406.827	54
407.29	52
407.754	52
408.217	54
408.68	53
409.143	53
409.607	61
410.07	53
410.533	56
410.997	56
411.46	57
411.924	61
412.387	62
412.851	65
413.314	66
413.778	63
414.242	65
414.705	67
415.169	70
415.633	68
416.097	71
416.561	71
417.024	73
417.488	76
417.952	74
418.416	79
418.88	72
419.344	73
419.809	70
420.273	82
420.737	76
421.201	71
421.665	84
422.13	80
422.594	86
423.059	86
423.523	83
423.987	87
424.452	90
424.916	92
425.381	92
425.846	97
426.31	94
426.775	93
427.24	102
427.704	94
428.169	101
428.634	101
429.099	101
429.564	105
430.029	103
430.494	101
430.959	105
431.424	99
431.889	106
432.354	109
432.819	109
433.284	112
433.75	113
434.215	118
434.68	124
435.146	130
435.611	146
436.077	147
436.542	149
437.008	141
437.473	137
437.939	145
438.404	149
438.87	150
439.336	146
439.801	142
440.267	147
440.733	154
441.199	154
441.665	153
442.131	156
442.596	159
443.062	156
443.529	168
443.995	171
444.461	172
444.927	187
445.393	182
445.859	194
446.325	193
446.792	212
447.258	213
447.724	214
448.191	224
448.657	228
449.124	231
449.59	227
450.057	242
450.523	245
450.99	245
451.457	246
451.923	258
452.39	251
452.857	258
453.324	255
453.791	263
454.257	263
454.724	265
455.191	269
455.658	263
456.125	277
456.592	275
457.059	280
457.527	283
457.994	294
458.461	294
458.928	300
459.396	302
459.863	308
460.33	310
460.798	313
461.265	318
461.732	313
462.2	330
462.668	322
463.135	329
463.603	317
464.07	320
464.538	323
465.006	335
465.474	324
465.941	328
466.409	331
466.877	326
467.345	339
467.813	330
468.281	336
468.749	336
469.217	343
469.685	345
470.153	352
470.621	349
471.09	361
471.558	370
472.026	372
472.494	381
472.963	386
473.431	404
473.9	412
474.368	419
474.837	430
475.305	431
475.774	449
476.242	461
476.711	458
477.18	466
477.648	472
478.117	474
478.586	470
479.055	474
479.524	479
479.993	476
480.462	473
480.93	479
481.399	476
481.869	479
482.338	484
482.807	489
483.276	490
483.745	492
484.214	505
484.684	512
485.153	515
485.622	517
486.092	534
486.561	529
487.031	539
487.5	557
487.97	565
488.439	585
488.909	599
489.378	620
489.848	621
490.318	633
490.787	660
491.257	672
491.727	670
492.197	687
492.667	678
493.137	686
493.607	697
494.077	706
494.547	693
495.017	697
495.487	711
495.957	720
496.427	712
496.897	705
497.368	718
497.838	715
498.308	732
498.779	738
499.249	746
499.719	753
500.19	763
500.66	768
501.131	776
501.602	785
502.072	779
502.543	796
503.014	826
503.484	827
503.955	853
504.426	889
504.897	892
505.368	914
505.838	923
506.309	950
506.78	978
507.251	1007
507.722	1016
508.194	1046
508.665	1067
509.136	1054
509.607	1095
510.078	1105
510.549	1111
511.021	1134
511.492	1142
511.964	1163
512.435	1186
512.906	1172
513.378	1188
513.849	1212
514.321	1218
514.793	1229
515.264	1242
515.736	1255
516.208	1283
516.679	1287
517.151	1300
517.623	1314
518.095	1339
518.567	1356
519.038	1373
519.51	1371
519.982	1404
520.454	1413
520.927	1439
521.399	1463
521.871	1490
522.343	1491
522.815	1502
523.287	1498
523.76	1522
524.232	1545
524.704	1548
525.177	1526
525.649	1537
526.122	1556
526.594	1528
527.067	1571
527.539	1583
528.012	1578
528.484	1574
528.957	1573
529.43	1577
529.903	1569
530.375	1623
530.848	1600
531.321	1625
531.794	1617
532.267	1655
532.74	1634
533.213	1638
533.686	1673
534.159	1658
534.632	1704
535.105	1717
535.578	1750
536.051	1762
536.525	1764
536.998	1770
537.471	1811
537.945	1788
538.418	1829
538.891	1843
539.365	1854
539.838	1871
540.312	1879
540.786	1894
541.259	1889
541.733	1916
542.206	1928
542.68	1909
543.154	1896
543.628	1906
544.101	1964
544.575	1943
545.049	1892
545.523	1933
545.997	1949
546.471	1964
546.945	1933
547.419	1951
547.893	1884
548.367	1925
548.842	1916
549.316	1915
549.79	1936
550.264	1920
550.739	1947
551.213	1939
551.687	1938
552.162	1969
552.636	1951
553.111	1941
553.585	2005
554.06	1975
554.534	2008
555.009	1991
555.484	2035
555.958	2066
556.433	2072
556.908	2100
557.383	2079
557.858	2139
558.333	2144
558.807	2131
559.282	2140
559.757	2219
560.232	2222
560.708	2198
561.183	2174
561.658	2210
562.133	2213
562.608	2196
563.083	2247
563.559	2194
564.034	2215
564.509	2221
564.985	2222
565.46	2189
565.936	2250
566.411	2250
566.887	2229
567.362	2240
567.838	2242
568.313	2268
568.789	2229
569.265	2225
569.74	2251
570.216	2251
570.692	2287
571.168	2288
571.644	2264
572.12	2266
572.596	2304
573.071	2314
573.547	2373
574.024	2413
574.5	2441
574.976	2454
575.452	2487
575.928	2504
576.404	2514
576.881	2614
577.357	2566
577.833	2578
578.31	2650
578.786	2688
579.262	2743
579.739	2699
580.215	2765
580.692	2754
581.169	2743
581.645	2749
582.122	2837
582.598	2824
583.075	2831
583.552	2868
584.029	2853
584.506	2839
584.982	2806
585.459	2867
585.936	2851
586.413	2877
586.89	2919
587.367	2900
587.844	2970
588.321	2958
588.799	2953
589.276	2917
589.753	2950
590.23	2980
590.707	2975
591.185	2974
591.662	2971
592.139	3025
592.617	3083
593.094	3062
593.572	3080
594.049	3115
594.527	3155
595.004	3180
595.482	3249
595.96	3215
596.437	3230
596.915	3321
597.393	3263
597.871	3332
598.349	3294
598.826	3374
599.304	3367
599.782	3438
600.26	3418
600.738	3497
601.216	3504
601.694	3529
602.173	3557
602.651	3539
603.129	3487
603.607	3528
604.085	3549
604.564	3544
605.042	3544
605.52	3533
605.999	3635
606.477	3552
606.956	3567
607.434	3608
607.913	3649
608.391	3634
608.87	3627
609.348	3574
609.827	3599
610.306	3651
610.785	3693
611.263	3723
611.742	3685
612.221	3624
612.7	3649
613.179	3669
613.658	3621
614.137	3690
614.616	3709
615.095	3632
615.574	3706
616.053	3740
616.532	3708
617.011	3714
617.491	3743
617.97	3746
618.449	3808
618.928	3838
619.408	3793
619.887	3837
620.367	3860
620.846	3916
621.326	3890
621.805	3974
622.285	3959
622.764	3998
623.244	4007
623.724	4045
624.203	4066
624.683	3989
625.163	4074
625.643	4062
626.123	4028
626.602	4141
627.082	4069
627.562	4062
628.042	4157
628.522	4100
629.002	4070
629.482	4081
629.963	4091
630.443	4057
630.923	4080
631.403	4114
631.883	4102
632.364	4104
632.844	4073
633.324	4105
633.805	4126
634.285	4075
634.766	4051
635.246	4057
635.727	4056
636.207	4068
636.688	4081
637.168	4088
637.649	4049
638.13	4042
638.611	4068
639.091	4066
639.572	4034
640.053	4010
640.534	4054
641.015	4045
641.496	4003
641.977	4073
642.458	4037
642.939	4061
643.42	4070
643.901	4074
644.382	4125
644.863	4121
645.345	4121
645.826	4120
646.307	4128
646.788	4204
647.27	4135
647.751	4123
648.233	4151
648.714	4069
649.196	4195
649.677	4190
650.159	4179
650.64	4135
651.122	4195
651.603	4160
652.085	4211
652.567	4219
653.049	4183
653.53	4164
654.012	4229
654.494	4160
654.976	4204
655.458	4185
655.94	4176
656.422	4255
656.904	4201
657.386	4159
657.868	4167
658.35	4150
658.833	4175
659.315	4197
659.797	4143
660.279	4146
660.762	4175
661.244	4127
661.726	4073
662.209	4068
662.691	4075
663.174	4015
663.656	4040
664.139	4036
664.621	4000
665.104	3963
665.587	4038
666.069	4054
666.552	4075
667.035	4019
667.517	4036
668	4072
668.483	4069
668.966	4035
669.449	4019
669.932	4025
670.415	4054
670.898	4026
671.381	4046
671.864	4067
672.347	4029
672.83	4041
673.313	4038
673.797	4015
674.28	4105
674.763	4140
675.247	4172
675.73	4139
676.213	4166
676.697	4188
677.18	4189
677.664	4218
678.147	4209
678.631	4220
679.114	4248
679.598	4241
680.082	4280
680.565	4286
681.049	4274
681.533	4260
682.017	4288
682.5	4270
682.984	4304
683.468	4291
683.952	4220
684.436	4318
684.92	4275
685.404	4302
685.888	4332
686.372	4316
686.856	4348
687.341	4396
687.825	4323
688.309	4330
688.793	4322
689.278	4261
689.762	4304
690.246	4283
690.731	4299
691.215	4328
691.7	4217
692.184	4253
692.669	4245
693.153	4283
693.638	4230
694.122	4215
694.607	4240
695.092	4181
695.577	4211
696.061	4140
696.546	4154
697.031	4144
697.516	4170
698.001	4178
698.486	4166
698.971	4232
699.456	4139
699.941	4151
700.426	4136
700.911	4184
701.396	4173
701.881	4219
702.366	4198
702.852	4195
703.337	4212
703.822	4190
704.308	4192
704.793	4209
705.278	4232
705.764	4251
706.249	4209
706.735	4182
707.22	4202
707.706	4126
708.191	4226
708.677	4245
709.163	4202
709.648	4237
710.134	4287
710.62	4246
711.106	4269
711.592	4332
712.077	4303
712.563	4190
713.049	4171
713.535	4255
714.021	4237
714.507	4224
714.993	4197
715.479	4246
715.966	4194
716.452	4193
716.938	4192
717.424	4067
717.91	4157
718.397	4140
718.883	4115
719.369	4147
719.856	4096
720.342	4150
720.829	4089
721.315	4129
721.802	4085
722.288	4114
722.775	3943
723.262	3832
723.748	4003
724.235	4001
724.722	4072
725.208	4015
725.695	4020
726.182	3981
726.669	3916
727.156	3931
727.643	3870
728.13	3865
728.617	3824
729.104	3825
729.591	3810
730.078	3836
730.565	3856
731.052	3808
731.539	3817
732.027	3797
732.514	3742
733.001	3784
733.488	3750
733.976	3746
734.463	3731
734.951	3725
735.438	3767
735.926	3742
736.413	3780
736.901	3751
737.388	3804
737.876	3795
738.364	3766
738.851	3775
739.339	3762
739.827	3797
740.314	3682
740.802	3724
741.29	3731
741.778	3670
742.266	3685
742.754	3698
743.242	3722
743.73	3642
744.218	3634
744.706	3587
745.194	3620
745.682	3589
746.17	3607
746.659	3641
747.147	3557
747.635	3578
748.123	3563
748.612	3529
749.1	3510
749.589	3560
750.077	3530
750.566	3499
751.054	3513
751.543	3533
752.031	3468
752.52	3453
753.008	3383
753.497	3391
753.986	3379
754.474	3354
754.963	3393
755.452	3356
755.941	3338
756.43	3337
756.919	3330
757.408	3312
757.896	3327
758.385	3341
758.875	3298
759.364	3247
759.853	3228
760.342	3169
760.831	3218
761.32	3188
761.809	3143
762.299	3153
762.788	3169
763.277	3160
763.767	3116
764.256	3118
764.745	3063
765.235	3106
765.724	3009
766.214	3056
766.703	3037
767.193	3011
767.683	3018
768.172	2959
768.662	2986
769.152	2969
769.641	2969
770.131	2903
770.621	2945
771.111	2896
771.601	2886
772.09	2860
772.58	2820
773.07	2833
773.56	2866
774.05	2832
774.54	2841
775.031	2825
775.521	2799
776.011	2778
776.501	2798
776.991	2737
777.482	2766
777.972	2697
778.462	2699
778.953	2728
779.443	2700
779.933	2692
780.424	2663
780.914	2688
781.405	2707
781.895	2677
782.386	2674
782.877	2659
783.367	2606
783.858	2576
784.349	2580
784.839	2546
785.33	2552
785.821	2551
786.312	2533
786.803	2549
787.293	2556
787.784	2513
788.275	2472
788.766	2437
789.257	2476
789.748	2425
790.24	2410
790.731	2432
791.222	2389
791.713	2378
792.204	2385
792.696	2320
793.187	2345
793.678	2330
794.169	2264
794.661	2291
795.152	2265
795.644	2245
796.135	2245
796.627	2260
797.118	2215
797.61	2208
798.101	2189
798.593	2202
799.085	2181
799.576	2187
800.068	2150
800.56	2141
801.052	2089
801.544	2080
802.035	2096
802.527	2071
803.019	2044
803.511	2027
804.003	2021
804.495	2024
804.987	2002
805.479	1948
805.971	1980
806.464	1976
806.956	1929
807.448	1933
807.94	1927
808.433	1918
808.925	1917
809.417	1892
809.91	1877
810.402	1823
810.894	1831
811.387	1846
811.879	1814
812.372	1834
812.865	1808
813.357	1803
813.85	1793
814.342	1785
814.835	1789
815.328	1779
815.821	1743
816.313	1744
816.806	1750
817.299	1725
817.792	1729
818.285	1707
818.778	1731
819.271	1731
819.764	1707
820.257	1719
820.75	1724
821.243	1716
821.736	1700
822.229	1720
822.722	1714
823.216	1753
