Data from lamp5helium_sterk_Subt4__68__523.txt Node

Date: Wed Apr 09 10:18:36 CEST 2025
User: fys-lab-0081
Spectrometer: S04999
Trigger mode: 0
Resolution mode: 1024 pixels
Integration Time (sec): 1.000000E-1
Scans to average: 1
Nonlinearity correction enabled: false
Boxcar width: 0
Baseline correction enabled: true
XAxis mode: Wavelengths
Number of Pixels in Spectrum: 1024
>>>>>Begin Spectral Data<<<<<
336.42	-1
336.877	-3
337.334	-1
337.792	3
338.249	8
338.706	1
339.164	-1
339.621	-1
340.079	1
340.536	9
340.994	8
341.452	-3
341.909	0
342.367	4
342.825	-1
343.283	2
343.741	-1
344.198	3
344.656	-2
345.114	0
345.572	3
346.03	3
346.488	2
346.947	-1
347.405	1
347.863	0
348.321	5
348.779	3
349.238	1
349.696	4
350.154	4
350.613	-1
351.071	2
351.53	7
351.988	4
352.447	3
352.905	3
353.364	0
353.823	1
354.282	0
354.74	-3
355.199	5
355.658	8
356.117	3
356.576	5
357.035	4
357.494	9
357.953	6
358.412	8
358.871	-4
359.33	4
359.789	6
360.249	2
360.708	6
361.167	6
361.626	9
362.086	6
362.545	3
363.005	9
363.464	2
363.924	5
364.383	10
364.843	6
365.303	5
365.762	9
366.222	5
366.682	5
367.142	10
367.601	8
368.061	7
368.521	12
368.981	8
369.441	13
369.901	10
370.361	4
370.821	5
371.282	11
371.742	9
372.202	11
372.662	13
373.123	12
373.583	7
374.043	10
374.504	2
374.964	8
375.425	14
375.885	9
376.346	12
376.806	7
377.267	9
377.728	14
378.188	14
378.649	8
379.11	13
379.571	9
380.032	9
380.493	7
380.954	16
381.414	13
381.876	17
382.337	18
382.798	17
383.259	24
383.72	14
384.181	15
384.642	17
385.104	22
385.565	28
386.026	21
386.488	17
386.949	23
387.411	24
387.872	23
388.334	24
388.795	19
389.257	28
389.719	26
390.181	25
390.642	28
391.104	26
391.566	23
392.028	29
392.49	27
392.952	28
393.414	33
393.876	30
394.338	30
394.8	31
395.262	31
395.724	37
396.186	36
396.648	36
397.111	34
397.573	36
398.035	38
398.498	37
398.96	37
399.423	36
399.885	38
400.348	39
400.81	51
401.273	38
401.736	43
402.198	40
402.661	43
403.124	47
403.587	48
404.049	50.5
404.512	53
404.975	54
405.438	52
405.901	51
406.364	53
406.827	50
407.29	58
407.754	53
408.217	55
408.68	51
409.143	54
409.607	61
410.07	56
410.533	58
410.997	58
411.46	56
411.924	62
412.387	57
412.851	61
413.314	63
413.778	65
414.242	65
414.705	65
415.169	69
415.633	65
416.097	73
416.561	68
417.024	76
417.488	75
417.952	77
418.416	78
418.88	74
419.344	70
419.809	71
420.273	79
420.737	74
421.201	67
421.665	83
422.13	80
422.594	81
423.059	87
423.523	85
423.987	86
424.452	89
424.916	95
425.381	94
425.846	97
426.31	94
426.775	93
427.24	101
427.704	95
428.169	106
428.634	100
429.099	98
429.564	99
430.029	105
430.494	99
430.959	106
431.424	104
431.889	105
432.354	108
432.819	106
433.284	108
433.75	110
434.215	118
434.68	125
435.146	127
435.611	141
436.077	145
436.542	144
437.008	144
437.473	141
437.939	143
438.404	145
438.87	150
439.336	143
439.801	143
440.267	147
440.733	158
441.199	157
441.665	150
442.131	162
442.596	157
443.062	158
443.529	167
443.995	171
444.461	169
444.927	185
445.393	187
445.859	190
446.325	196
446.792	213
447.258	213
447.724	215
448.191	216
448.657	221
449.124	231
449.59	224
450.057	243
450.523	237
450.99	244
451.457	250
451.923	257
452.39	253
452.857	254
453.324	255
453.791	262
454.257	263
454.724	267
455.191	265
455.658	265
456.125	278
456.592	268
457.059	274
457.527	282
457.994	293
458.461	297
458.928	302
459.396	299
459.863	310
460.33	311
460.798	314
461.265	318
461.732	315
462.2	322
462.668	320
463.135	326
463.603	313
464.07	324
464.538	318
465.006	333
465.474	322
465.941	328
466.409	330
466.877	327
467.345	333
467.813	331
468.281	335
468.749	335
469.217	340
469.685	341
470.153	351
470.621	347
471.09	354
471.558	372
472.026	374
472.494	383
472.963	390
473.431	405
473.9	410
474.368	419
474.837	428
475.305	432
475.774	446
476.242	458
476.711	457
477.18	467
477.648	465
478.117	470
478.586	466
479.055	469
479.524	474
479.993	476
480.462	469
480.93	478
481.399	476
481.869	478
482.338	482
482.807	489
483.276	487
483.745	490
484.214	503
484.684	512
485.153	511
485.622	514
486.092	543
486.561	524
487.031	541
487.5	552
487.97	564
488.439	583
488.909	598
489.378	617
489.848	623
490.318	636
490.787	654
491.257	668
491.727	663
492.197	685
492.667	673
493.137	682
493.607	689
494.077	703
494.547	696
495.017	697
495.487	702
495.957	720
496.427	711
496.897	706
497.368	720
497.838	712
498.308	731
498.779	735
499.249	748
499.719	750
500.19	761
500.66	765
501.131	766
501.602	780
502.072	778
502.543	792
503.014	828
503.484	823
503.955	845
504.426	889
504.897	895
505.368	906
505.838	923
506.309	944
506.78	980
507.251	1001
507.722	1012
508.194	1044
508.665	1058
509.136	1056
509.607	1095
510.078	1101
510.549	1103
511.021	1134
511.492	1136
511.964	1161
512.435	1181
512.906	1175
513.378	1186
513.849	1209
514.321	1216
514.793	1228
515.264	1243
515.736	1255
516.208	1278
516.679	1284
517.151	1297
517.623	1308
518.095	1337
518.567	1351
519.038	1367
519.51	1370
519.982	1393
520.454	1409
520.927	1434
521.399	1459
521.871	1476
522.343	1484
522.815	1498
523.287	1495
523.76	1507
524.232	1537
524.704	1552
525.177	1527
525.649	1535
526.122	1548
526.594	1523
527.067	1565
527.539	1580
528.012	1571
528.484	1568
528.957	1573
529.43	1574
529.903	1559
530.375	1623
530.848	1595
531.321	1619
531.794	1609
532.267	1652
532.74	1632
533.213	1634
533.686	1666
534.159	1650
534.632	1695
535.105	1712
535.578	1747
536.051	1758
536.525	1761
536.998	1764
537.471	1797
537.945	1784
538.418	1822
538.891	1833
539.365	1853
539.838	1865
540.312	1873
540.786	1892
541.259	1887
541.733	1914
542.206	1920
542.68	1898
543.154	1889
543.628	1903
544.101	1952
544.575	1934
545.049	1885
545.523	1932
545.997	1943
546.471	1961
546.945	1922
547.419	1949
547.893	1879
548.367	1925
548.842	1902
549.316	1906
549.79	1929
550.264	1907
550.739	1943
551.213	1933
551.687	1937
552.162	1961
552.636	1943
553.111	1940
553.585	1997
554.06	1967
554.534	2001
555.009	1993
555.484	2025
555.958	2060
556.433	2068
556.908	2096
557.383	2075
557.858	2129
558.333	2139
558.807	2122
559.282	2137
559.757	2203
560.232	2215
560.708	2187
561.183	2169
561.658	2208
562.133	2205
562.608	2181
563.083	2238
563.559	2178
564.034	2203
564.509	2207
564.985	2213
565.46	2191
565.936	2244
566.411	2248
566.887	2222
567.362	2228
567.838	2234
568.313	2258
568.789	2225
569.265	2217
569.74	2244
570.216	2240
570.692	2281
571.168	2274
571.644	2264
572.12	2263
572.596	2296
573.071	2307
573.547	2366
574.024	2404
574.5	2427
574.976	2445
575.452	2478
575.928	2488
576.404	2509
576.881	2600
577.357	2567
577.833	2572
578.31	2630
578.786	2680
579.262	2735
579.739	2692
580.215	2758
580.692	2748
581.169	2741
581.645	2747
582.122	2824
582.598	2825
583.075	2830
583.552	2855
584.029	2850
584.506	2828
584.982	2801
585.459	2865
585.936	2830
586.413	2868
586.89	2912
587.367	2888
587.844	2964
588.321	2945
588.799	2947
589.276	2908
589.753	2949
590.23	2977
590.707	2971
591.185	2966
591.662	2970
592.139	3019
592.617	3066
593.094	3063
593.572	3059
594.049	3109
594.527	3148
595.004	3170
595.482	3242
595.96	3212
596.437	3221
596.915	3318
597.393	3257
597.871	3326
598.349	3289
598.826	3368
599.304	3368
599.782	3431
600.26	3400
600.738	3497
601.216	3485
601.694	3512
602.173	3544
602.651	3541
603.129	3489
603.607	3520
604.085	3541
604.564	3543
605.042	3553
605.52	3528
605.999	3625
606.477	3542
606.956	3557
607.434	3597.5
607.913	3638
608.391	3627
608.87	3607
609.348	3570
609.827	3602
610.306	3650
610.785	3697
611.263	3712
611.742	3680
612.221	3612
612.7	3636
613.179	3654
613.658	3614
614.137	3676
614.616	3698
615.095	3619
615.574	3689
616.053	3734
616.532	3698
617.011	3708
617.491	3725
617.97	3739
618.449	3794
618.928	3821
619.408	3787
619.887	3830
620.367	3838
620.846	3907
621.326	3881
621.805	3966
622.285	3952
622.764	3982
623.244	4003
623.724	4031
624.203	4055
624.683	3984
625.163	4073
625.643	4061
626.123	4020
626.602	4141
627.082	4051
627.562	4050
628.042	4139
628.522	4100
629.002	4058
629.482	4079
629.963	4072
630.443	4048
630.923	4068
631.403	4093
631.883	4090
632.364	4096
632.844	4058
633.324	4098
633.805	4114
634.285	4070
634.766	4036
635.246	4047
635.727	4047
636.207	4059
636.688	4075
637.168	4075
637.649	4047
638.13	4019
638.611	4054
639.091	4052
639.572	4020
640.053	4008
640.534	4041
641.015	4032
641.496	3988
641.977	4064
642.458	4020
642.939	4051
643.42	4063
643.901	4074
644.382	4118
644.863	4106
645.345	4111
645.826	4109
646.307	4123
646.788	4192
647.27	4117
647.751	4119
648.233	4145
648.714	4062
649.196	4180
649.677	4178
650.159	4177
650.64	4122
651.122	4192
651.603	4146
652.085	4192
652.567	4220
653.049	4169
653.53	4163
654.012	4220
654.494	4146
654.976	4194
655.458	4170
655.94	4167
656.422	4238
656.904	4193
657.386	4148
657.868	4156
658.35	4135
658.833	4161
659.315	4187
659.797	4129
660.279	4130
660.762	4161
661.244	4124
661.726	4060
662.209	4058
662.691	4061
663.174	3997
663.656	4021
664.139	4029
664.621	3979
665.104	3960
665.587	4018
666.069	4048
666.552	4062
667.035	4017
667.517	4025
668	4068
668.483	4060
668.966	4026
669.449	4010
669.932	4017
670.415	4048
670.898	4025
671.381	4032
671.864	4056
672.347	4029
672.83	4020
673.313	4031
673.797	4006
674.28	4101
674.763	4126
675.247	4163
675.73	4128
676.213	4146
676.697	4173
677.18	4179
677.664	4201
678.147	4199
678.631	4215
679.114	4236
679.598	4218
680.082	4270
680.565	4276
681.049	4268
681.533	4252
682.017	4279
682.5	4265
682.984	4277
683.468	4292
683.952	4214
684.436	4304
684.92	4255
685.404	4288
685.888	4322
686.372	4307
686.856	4335
687.341	4394
687.825	4318
688.309	4317
688.793	4314
689.278	4257
689.762	4294
690.246	4273
690.731	4296
691.215	4321
691.7	4205
692.184	4247
692.669	4230
693.153	4271
693.638	4214
694.122	4199
694.607	4226
695.092	4172
695.577	4213
696.061	4137
696.546	4147
697.031	4129
697.516	4147
698.001	4165
698.486	4155
698.971	4227
699.456	4140
699.941	4133
700.426	4124
700.911	4176
701.396	4160
701.881	4207
702.366	4187
702.852	4174
703.337	4196
703.822	4182
704.308	4165
704.793	4209
705.278	4225
705.764	4240
706.249	4207
706.735	4167
707.22	4197
707.706	4118
708.191	4207
708.677	4236
709.163	4201
709.648	4225
710.134	4272
710.62	4232
711.106	4251
711.592	4316
712.077	4288
712.563	4182
713.049	4160
713.535	4246
714.021	4222
714.507	4219
714.993	4180
715.479	4236
715.966	4193
716.452	4188
716.938	4181
717.424	4062
717.91	4157
718.397	4132
718.883	4109
719.369	4131
719.856	4084
720.342	4136
720.829	4087
721.315	4105
721.802	4078
722.288	4108
722.775	3936
723.262	3829
723.748	3993
724.235	3986
724.722	4061
725.208	4002
725.695	4000
726.182	3982
726.669	3905
727.156	3913
727.643	3868
728.13	3854
728.617	3818
729.104	3813
729.591	3801
730.078	3836
730.565	3857
731.052	3799
731.539	3810
732.027	3787
732.514	3732
733.001	3762
733.488	3748
733.976	3735
734.463	3727
734.951	3719
735.438	3760
735.926	3734
736.413	3770
736.901	3741
737.388	3794
737.876	3791
738.364	3758
738.851	3766
739.339	3753
739.827	3785
740.314	3683
740.802	3716
741.29	3720
741.778	3677
742.266	3674
742.754	3698
743.242	3715
743.73	3635
744.218	3635
744.706	3587
745.194	3613
745.682	3585
746.17	3604
746.659	3625
747.147	3545
747.635	3556
748.123	3557
748.612	3511
749.1	3504
749.589	3550
750.077	3513
750.566	3490
751.054	3500
751.543	3521
752.031	3453
752.52	3448
753.008	3378
753.497	3382
753.986	3371
754.474	3360
754.963	3399
755.452	3348
755.941	3335
756.43	3326
756.919	3321
757.408	3308
757.896	3323
758.385	3333
758.875	3293
759.364	3250
759.853	3215
760.342	3151
760.831	3213
761.32	3179
761.809	3131
762.299	3149
762.788	3166
763.277	3158
763.767	3108
764.256	3103
764.745	3058
765.235	3088
765.724	3004
766.214	3057
766.703	3039
767.193	3009
767.683	3011
768.172	2956
768.662	2979
769.152	2971
769.641	2965
770.131	2904
770.621	2952
771.111	2895
771.601	2873
772.09	2850
772.58	2814
773.07	2825
773.56	2862
774.05	2834
774.54	2830
775.031	2826
775.521	2794
776.011	2777
776.501	2794
776.991	2733
777.482	2758
777.972	2692
778.462	2693
778.953	2718
779.443	2700
779.933	2685
780.424	2661
780.914	2678
781.405	2696
781.895	2674
782.386	2664
782.877	2649
783.367	2598
783.858	2572
784.349	2571
784.839	2540
785.33	2547
785.821	2537
786.312	2529
786.803	2540
787.293	2556
787.784	2512
788.275	2467
788.766	2434
789.257	2480
789.748	2425
790.24	2406
790.731	2427
791.222	2392
791.713	2376
792.204	2384
792.696	2318
793.187	2348
793.678	2314
794.169	2264
794.661	2285
795.152	2261
795.644	2248
796.135	2234
796.627	2263
797.118	2214
797.61	2210
798.101	2190
798.593	2205
799.085	2170
799.576	2178
800.068	2140
800.56	2141
801.052	2090
801.544	2080
802.035	2093
802.527	2063
803.019	2045
803.511	2019
804.003	2006
804.495	2023
804.987	1993
805.479	1952
805.971	1977
806.464	1970
806.956	1926
807.448	1923
807.94	1930
808.433	1902
808.925	1909
809.417	1885
809.91	1876
810.402	1815
810.894	1825
811.387	1843
811.879	1816
812.372	1831
812.865	1803
813.357	1797
813.85	1794
814.342	1779
814.835	1779
815.328	1777
815.821	1744
816.313	1745
816.806	1751
817.299	1725
817.792	1731
818.285	1708
818.778	1723
819.271	1726
819.764	1704
820.257	1713
820.75	1724
821.243	1723
821.736	1708
822.229	1724
822.722	1714
823.216	1743
