Data from lamp5helium_sterk_Subt4__49__504.txt Node

Date: Wed Apr 09 10:18:34 CEST 2025
User: fys-lab-0081
Spectrometer: S04999
Trigger mode: 0
Resolution mode: 1024 pixels
Integration Time (sec): 1.000000E-1
Scans to average: 1
Nonlinearity correction enabled: false
Boxcar width: 0
Baseline correction enabled: true
XAxis mode: Wavelengths
Number of Pixels in Spectrum: 1024
>>>>>Begin Spectral Data<<<<<
336.42	3
336.877	-3
337.334	3
337.792	-1
338.249	5
338.706	2
339.164	-3
339.621	-1
340.079	3
340.536	5
340.994	8
341.452	-3
341.909	1
342.367	1
342.825	0
343.283	-1
343.741	1
344.198	4
344.656	5
345.114	1
345.572	3
346.03	5
346.488	7
346.947	-1
347.405	2
347.863	0
348.321	8
348.779	0
349.238	4
349.696	-2
350.154	3
350.613	1
351.071	2
351.53	4
351.988	4
352.447	1
352.905	2
353.364	0
353.823	4
354.282	3
354.74	0
355.199	6
355.658	1
356.117	5
356.576	10
357.035	1
357.494	7
357.953	5
358.412	3
358.871	-2
359.33	5
359.789	2
360.249	0
360.708	6
361.167	2
361.626	7
362.086	5
362.545	6
363.005	13
363.464	1
363.924	2
364.383	12
364.843	5
365.303	6
365.762	9
366.222	6
366.682	7
367.142	8
367.601	9
368.061	6
368.521	13
368.981	7
369.441	7
369.901	10
370.361	8
370.821	6
371.282	9
371.742	10
372.202	9
372.662	11
373.123	12
373.583	6
374.043	9
374.504	3
374.964	11
375.425	4
375.885	8
376.346	12
376.806	14
377.267	13
377.728	17
378.188	7
378.649	12
379.11	13
379.571	12
380.032	11
380.493	11
380.954	18
381.414	11
381.876	13
382.337	17
382.798	21
383.259	24
383.72	14
384.181	12
384.642	16
385.104	23
385.565	26
386.026	20
386.488	20
386.949	26
387.411	22
387.872	22
388.334	24
388.795	23
389.257	30
389.719	25
390.181	26
390.642	31
391.104	25
391.566	26
392.028	32
392.49	25
392.952	29
393.414	31
393.876	32
394.338	32
394.8	33
395.262	31
395.724	33
396.186	38
396.648	32
397.111	37
397.573	39
398.035	38
398.498	39
398.96	33
399.423	36
399.885	38
400.348	42
400.81	46
401.273	39
401.736	47
402.198	47
402.661	43
403.124	47
403.587	47
404.049	49.5
404.512	52
404.975	54
405.438	52
405.901	53
406.364	55
406.827	50
407.29	55
407.754	57
408.217	57
408.68	50
409.143	55
409.607	61
410.07	56
410.533	58
410.997	62
411.46	56
411.924	62
412.387	64
412.851	63
413.314	65
413.778	61
414.242	65
414.705	72
415.169	67
415.633	69
416.097	70
416.561	73
417.024	74
417.488	73
417.952	77
418.416	80
418.88	75
419.344	78
419.809	72
420.273	78
420.737	78
421.201	75
421.665	80
422.13	80
422.594	85
423.059	91
423.523	86
423.987	85
424.452	86
424.916	93
425.381	95
425.846	94
426.31	91
426.775	99
427.24	104
427.704	98
428.169	100
428.634	100
429.099	101
429.564	101
430.029	106
430.494	101
430.959	107
431.424	105
431.889	109
432.354	107
432.819	109
433.284	113
433.75	115
434.215	117
434.68	122
435.146	125
435.611	145
436.077	148
436.542	148
437.008	141
437.473	140
437.939	144
438.404	143
438.87	149
439.336	148
439.801	144
440.267	148
440.733	159
441.199	156
441.665	149
442.131	164
442.596	159
443.062	160
443.529	166
443.995	170
444.461	173
444.927	185
445.393	183
445.859	192
446.325	195
446.792	215
447.258	212
447.724	217
448.191	220
448.657	225
449.124	235
449.59	232
450.057	246
450.523	239
450.99	244
451.457	249
451.923	260
452.39	250
452.857	258
453.324	254
453.791	262
454.257	264
454.724	268
455.191	270
455.658	265
456.125	280
456.592	274
457.059	278
457.527	286
457.994	292
458.461	299
458.928	304
459.396	302
459.863	310
460.33	311
460.798	315
461.265	315
461.732	310
462.2	323
462.668	323
463.135	327
463.603	319
464.07	325
464.538	325
465.006	335
465.474	325
465.941	328
466.409	328
466.877	321
467.345	334
467.813	334
468.281	334
468.749	340
469.217	343
469.685	344
470.153	356
470.621	355
471.09	360
471.558	376
472.026	376
472.494	383
472.963	391
473.431	405
473.9	413
474.368	422
474.837	428
475.305	433
475.774	443
476.242	463
476.711	459
477.18	470
477.648	469
478.117	473
478.586	471
479.055	468
479.524	480
479.993	473
480.462	472
480.93	481
481.399	476
481.869	482
482.338	481
482.807	492
483.276	491
483.745	491
484.214	508
484.684	517
485.153	512
485.622	518
486.092	536
486.561	534
487.031	546
487.5	555
487.97	570
488.439	585
488.909	596
489.378	620
489.848	620
490.318	640
490.787	656
491.257	670
491.727	670
492.197	685
492.667	680
493.137	689
493.607	696
494.077	703
494.547	694
495.017	704
495.487	705
495.957	722
496.427	716
496.897	714
497.368	722
497.838	724
498.308	730
498.779	744
499.249	747
499.719	759
500.19	766
500.66	767
501.131	777
501.602	787
502.072	780
502.543	798
503.014	835
503.484	829
503.955	854
504.426	891
504.897	900
505.368	911
505.838	927
506.309	951
506.78	990
507.251	1010
507.722	1022
508.194	1045
508.665	1062
509.136	1062
509.607	1099
510.078	1111
510.549	1112
511.021	1142
511.492	1143
511.964	1169
512.435	1184
512.906	1175
513.378	1190
513.849	1214
514.321	1221
514.793	1229
515.264	1252
515.736	1259
516.208	1285
516.679	1291
517.151	1303
517.623	1319
518.095	1342
518.567	1360
519.038	1373
519.51	1378
519.982	1403
520.454	1418
520.927	1443
521.399	1461
521.871	1484
522.343	1488
522.815	1499
523.287	1505
523.76	1515
524.232	1544
524.704	1558
525.177	1531
525.649	1542
526.122	1558
526.594	1536
527.067	1570
527.539	1594
528.012	1578
528.484	1583
528.957	1576
529.43	1574
529.903	1575
530.375	1634
530.848	1602
531.321	1623
531.794	1617
532.267	1656
532.74	1638
533.213	1641
533.686	1676
534.159	1662
534.632	1701
535.105	1719
535.578	1753
536.051	1761
536.525	1769
536.998	1772
537.471	1814
537.945	1792
538.418	1831
538.891	1843
539.365	1861
539.838	1875
540.312	1881
540.786	1908
541.259	1903
541.733	1922
542.206	1929
542.68	1902
543.154	1900
543.628	1917
544.101	1970
544.575	1946
545.049	1897
545.523	1937
545.997	1949
546.471	1975
546.945	1934
547.419	1960
547.893	1880
548.367	1938
548.842	1918
549.316	1918
549.79	1934
550.264	1918
550.739	1949
551.213	1943
551.687	1946
552.162	1972
552.636	1953
553.111	1944
553.585	2004
554.06	1981
554.534	2015
555.009	2003
555.484	2039
555.958	2069
556.433	2082
556.908	2106
557.383	2084
557.858	2140
558.333	2148
558.807	2147
559.282	2150
559.757	2212
560.232	2232
560.708	2198
561.183	2178
561.658	2219
562.133	2213
562.608	2197
563.083	2253
563.559	2202
564.034	2211
564.509	2217
564.985	2222
565.46	2198
565.936	2254
566.411	2253
566.887	2224
567.362	2248
567.838	2248
568.313	2266
568.789	2238
569.265	2230
569.74	2266
570.216	2253
570.692	2300
571.168	2286
571.644	2274
572.12	2270
572.596	2303
573.071	2319
573.547	2389
574.024	2417
574.5	2444
574.976	2459
575.452	2492
575.928	2507
576.404	2529
576.881	2610
577.357	2573
577.833	2587
578.31	2652
578.786	2692
579.262	2746
579.739	2699
580.215	2768
580.692	2764
581.169	2755
581.645	2757
582.122	2838
582.598	2840
583.075	2845
583.552	2868
584.029	2861
584.506	2845
584.982	2818
585.459	2874
585.936	2851
586.413	2881
586.89	2932
587.367	2908
587.844	2977
588.321	2962
588.799	2963
589.276	2918
589.753	2970
590.23	2989
590.707	2980
591.185	2981
591.662	2982
592.139	3031
592.617	3085
593.094	3077
593.572	3083
594.049	3126
594.527	3160
595.004	3179
595.482	3256
595.96	3222
596.437	3238
596.915	3334
597.393	3271
597.871	3339
598.349	3303
598.826	3385
599.304	3376
599.782	3450
600.26	3414
600.738	3515
601.216	3505
601.694	3533
602.173	3574
602.651	3555
603.129	3493
603.607	3534
604.085	3560
604.564	3555
605.042	3560
605.52	3538
605.999	3635
606.477	3552
606.956	3582
607.434	3622.5
607.913	3663
608.391	3646
608.87	3630
609.348	3580
609.827	3611
610.306	3664
610.785	3718
611.263	3736
611.742	3689
612.221	3627
612.7	3660
613.179	3673
613.658	3636
614.137	3693
614.616	3720
615.095	3645
615.574	3712
616.053	3755
616.532	3719
617.011	3732
617.491	3747
617.97	3747
618.449	3818
618.928	3845
619.408	3806
619.887	3848
620.367	3865
620.846	3927
621.326	3900
621.805	3993
622.285	3965
622.764	4004
623.244	4010
623.724	4053
624.203	4078
624.683	4003
625.163	4086
625.643	4079
626.123	4044
626.602	4152
627.082	4076
627.562	4074
628.042	4154
628.522	4119
629.002	4075
629.482	4093
629.963	4093
630.443	4058
630.923	4083
631.403	4112
631.883	4106
632.364	4114
632.844	4079
633.324	4117
633.805	4140
634.285	4083
634.766	4060
635.246	4061
635.727	4069
636.207	4084
636.688	4084
637.168	4093
637.649	4057
638.13	4048
638.611	4080
639.091	4071
639.572	4045
640.053	4027
640.534	4056
641.015	4047
641.496	4019
641.977	4091
642.458	4042
642.939	4061
643.42	4075
643.901	4081
644.382	4134
644.863	4123
645.345	4133
645.826	4125
646.307	4144
646.788	4219
647.27	4129
647.751	4131
648.233	4168
648.714	4078
649.196	4207
649.677	4194
650.159	4196
650.64	4145
651.122	4218
651.603	4168
652.085	4221
652.567	4235
653.049	4186
653.53	4183
654.012	4240
654.494	4170
654.976	4216
655.458	4197
655.94	4193
656.422	4268
656.904	4204
657.386	4168
657.868	4174
658.35	4160
658.833	4191
659.315	4201
659.797	4149
660.279	4154
660.762	4187
661.244	4136
661.726	4075
662.209	4082
662.691	4081
663.174	4013
663.656	4044
664.139	4046
664.621	4002
665.104	3978
665.587	4042
666.069	4076
666.552	4078
667.035	4030
667.517	4044
668	4077
668.483	4073
668.966	4042
669.449	4032
669.932	4033
670.415	4060
670.898	4034
671.381	4057
671.864	4082
672.347	4037
672.83	4036
673.313	4042
673.797	4023
674.28	4115
674.763	4148
675.247	4181
675.73	4152
676.213	4181
676.697	4194
677.18	4205
677.664	4228
678.147	4215
678.631	4234
679.114	4247
679.598	4244
680.082	4290
680.565	4300
681.049	4285
681.533	4273
682.017	4297
682.5	4276
682.984	4310
683.468	4297
683.952	4240
684.436	4323
684.92	4278
685.404	4304
685.888	4348
686.372	4329
686.856	4354
687.341	4396
687.825	4336
688.309	4340
688.793	4334
689.278	4271
689.762	4326
690.246	4296
690.731	4311
691.215	4338
691.7	4221
692.184	4262
692.669	4256
693.153	4293
693.638	4234
694.122	4220
694.607	4244
695.092	4194
695.577	4227
696.061	4152
696.546	4158
697.031	4147
697.516	4177
698.001	4186
698.486	4185
698.971	4241
699.456	4153
699.941	4156
700.426	4152
700.911	4197
701.396	4185
701.881	4222
702.366	4215
702.852	4199
703.337	4220
703.822	4201
704.308	4196
704.793	4231
705.278	4233
705.764	4263
706.249	4224
706.735	4184
707.22	4211
707.706	4148
708.191	4234
708.677	4256
709.163	4218
709.648	4248
710.134	4301
710.62	4255
711.106	4270
711.592	4339
712.077	4314
712.563	4204
713.049	4180
713.535	4265
714.021	4241
714.507	4240
714.993	4216
715.479	4256
715.966	4216
716.452	4196
716.938	4198
717.424	4080
717.91	4168
718.397	4143
718.883	4122
719.369	4148
719.856	4115
720.342	4150
720.829	4096
721.315	4124
721.802	4106
722.288	4124
722.775	3952
723.262	3845
723.748	4010
724.235	4012
724.722	4091
725.208	4024
725.695	4012
726.182	4001
726.669	3921
727.156	3939
727.643	3879
728.13	3868
728.617	3836
729.104	3831
729.591	3819
730.078	3860
730.565	3870
731.052	3812
731.539	3832
732.027	3803
732.514	3752
733.001	3792
733.488	3764
733.976	3763
734.463	3744
734.951	3730
735.438	3775
735.926	3754
736.413	3790
736.901	3761
737.388	3816
737.876	3806
738.364	3780
738.851	3787
739.339	3765
739.827	3815
740.314	3698
740.802	3729
741.29	3741
741.778	3690
742.266	3692
742.754	3702
743.242	3731
743.73	3656
744.218	3643
744.706	3592
745.194	3620
745.682	3594
746.17	3620
746.659	3646
747.147	3566
747.635	3578
748.123	3574
748.612	3528
749.1	3525
749.589	3563
750.077	3532
750.566	3507
751.054	3527
751.543	3538
752.031	3482
752.52	3470
753.008	3384
753.497	3390
753.986	3391
754.474	3370
754.963	3410
755.452	3362
755.941	3345
756.43	3345
756.919	3336
757.408	3320
757.896	3331
758.385	3343
758.875	3308
759.364	3260
759.853	3230
760.342	3172
760.831	3229
761.32	3195
761.809	3145
762.299	3160
762.788	3177
763.277	3167
763.767	3120
764.256	3119
764.745	3067
765.235	3105
765.724	3013
766.214	3067
766.703	3043
767.193	3010
767.683	3021
768.172	2972
768.662	3002
769.152	2979
769.641	2991
770.131	2918
770.621	2956
771.111	2913
771.601	2892
772.09	2859
772.58	2821
773.07	2840
773.56	2870
774.05	2839
774.54	2850
775.031	2830
775.521	2804
776.011	2785
776.501	2807
776.991	2746
777.482	2763
777.972	2700
778.462	2705
778.953	2733
779.443	2709
779.933	2707
780.424	2679
780.914	2700
781.405	2708
781.895	2676
782.386	2673
782.877	2663
783.367	2607
783.858	2589
784.349	2575
784.839	2552
785.33	2559
785.821	2548
786.312	2538
786.803	2552
787.293	2563
787.784	2521
788.275	2474
788.766	2452
789.257	2488
789.748	2431
790.24	2421
790.731	2435
791.222	2396
791.713	2390
792.204	2391
792.696	2330
793.187	2351
793.678	2334
794.169	2270
794.661	2296
795.152	2267
795.644	2245
796.135	2245
796.627	2269
797.118	2228
797.61	2216
798.101	2196
798.593	2209
799.085	2181
799.576	2192
800.068	2146
800.56	2148
801.052	2096
801.544	2087
802.035	2096
802.527	2077
803.019	2058
803.511	2038
804.003	2017
804.495	2033
804.987	2001
805.479	1953
805.971	1985
806.464	1988
806.956	1932
807.448	1934
807.94	1935
808.433	1918
808.925	1916
809.417	1889
809.91	1881
810.402	1829
810.894	1837
811.387	1850
811.879	1821
812.372	1840
812.865	1814
813.357	1809
813.85	1795
814.342	1788
814.835	1789
815.328	1779
815.821	1757
816.313	1747
816.806	1756
817.299	1724
817.792	1739
818.285	1714
818.778	1734
819.271	1737
819.764	1711
820.257	1716
820.75	1728
821.243	1732
821.736	1711
822.229	1724
822.722	1724
823.216	1753
