Data from lamp5helium_sterk_Subt4__95__550.txt Node

Date: Wed Apr 09 10:18:40 CEST 2025
User: fys-lab-0081
Spectrometer: S04999
Trigger mode: 0
Resolution mode: 1024 pixels
Integration Time (sec): 1.000000E-1
Scans to average: 1
Nonlinearity correction enabled: false
Boxcar width: 0
Baseline correction enabled: true
XAxis mode: Wavelengths
Number of Pixels in Spectrum: 1024
>>>>>Begin Spectral Data<<<<<
336.42	3
336.877	-3
337.334	2
337.792	-3
338.249	-1
338.706	2
339.164	1
339.621	-5
340.079	3
340.536	8
340.994	5
341.452	-2
341.909	2
342.367	-1
342.825	-2
343.283	2
343.741	4
344.198	2
344.656	-1
345.114	4
345.572	-2
346.03	5
346.488	2
346.947	-2
347.405	-1
347.863	3
348.321	6
348.779	6
349.238	5
349.696	6
350.154	-2
350.613	-2
351.071	2
351.53	5
351.988	1
352.447	1
352.905	0
353.364	-3
353.823	7
354.282	4
354.74	-4
355.199	5
355.658	6
356.117	3
356.576	6
357.035	2
357.494	2
357.953	9
358.412	9
358.871	-4
359.33	1
359.789	4
360.249	0
360.708	7
361.167	5
361.626	7
362.086	2
362.545	9
363.005	9
363.464	-2
363.924	-1
364.383	11
364.843	5
365.303	4
365.762	5
366.222	3
366.682	8
367.142	9
367.601	6
368.061	4
368.521	11
368.981	4
369.441	9
369.901	10
370.361	9
370.821	4
371.282	12
371.742	11
372.202	9
372.662	11
373.123	8
373.583	10
374.043	6
374.504	6
374.964	7
375.425	6
375.885	7
376.346	10
376.806	12
377.267	13
377.728	14
378.188	13
378.649	11
379.11	9
379.571	11
380.032	11
380.493	8
380.954	14
381.414	11
381.876	8
382.337	17
382.798	16
383.259	23
383.72	19
384.181	15
384.642	18
385.104	23
385.565	31
386.026	19
386.488	20
386.949	23
387.411	27
387.872	19
388.334	27
388.795	22
389.257	20
389.719	28
390.181	23
390.642	31
391.104	26
391.566	21
392.028	34
392.49	29
392.952	31
393.414	33
393.876	27
394.338	30
394.8	30
395.262	32
395.724	33
396.186	35
396.648	35
397.111	32
397.573	38
398.035	30
398.498	36
398.96	35
399.423	40
399.885	42
400.348	38
400.81	47
401.273	37
401.736	43
402.198	42
402.661	43
403.124	47
403.587	49
404.049	49
404.512	49
404.975	53
405.438	47
405.901	50
406.364	52
406.827	48
407.29	54
407.754	54
408.217	55
408.68	51
409.143	53
409.607	59
410.07	56
410.533	57
410.997	59
411.46	56
411.924	57
412.387	58
412.851	56
413.314	65
413.778	59
414.242	60
414.705	67
415.169	66
415.633	68
416.097	72
416.561	69
417.024	74
417.488	76
417.952	78
418.416	80
418.88	75
419.344	71
419.809	74
420.273	78
420.737	76
421.201	70
421.665	82
422.13	83
422.594	83
423.059	86
423.523	87
423.987	86
424.452	89
424.916	95
425.381	93
425.846	94
426.31	100
426.775	92
427.24	103
427.704	91
428.169	104
428.634	103
429.099	99
429.564	100
430.029	105
430.494	104
430.959	106
431.424	105
431.889	106
432.354	110
432.819	110
433.284	112
433.75	112
434.215	120
434.68	122
435.146	126
435.611	145
436.077	149
436.542	146
437.008	141
437.473	143
437.939	142
438.404	147
438.87	152
439.336	147
439.801	146
440.267	150
440.733	159
441.199	155
441.665	151
442.131	160
442.596	160
443.062	160
443.529	169
443.995	173
444.461	166
444.927	186
445.393	186
445.859	196
446.325	193
446.792	214
447.258	213
447.724	216
448.191	219
448.657	224
449.124	235
449.59	230
450.057	245
450.523	240
450.99	248
451.457	247
451.923	252
452.39	246
452.857	257
453.324	253
453.791	260
454.257	264
454.724	268
455.191	263
455.658	265
456.125	276
456.592	276
457.059	280
457.527	283
457.994	295
458.461	297
458.928	307
459.396	297
459.863	308
460.33	308
460.798	311
461.265	317
461.732	312
462.2	324
462.668	322
463.135	330
463.603	318
464.07	324
464.538	322
465.006	334
465.474	327
465.941	327
466.409	331
466.877	322
467.345	337
467.813	337
468.281	335
468.749	339
469.217	340
469.685	340
470.153	354
470.621	351
471.09	354
471.558	368
472.026	371
472.494	379
472.963	392
473.431	402
473.9	412
474.368	424
474.837	424
475.305	431
475.774	443
476.242	465
476.711	458
477.18	468
477.648	467
478.117	473
478.586	467
479.055	470
479.524	475
479.993	473
480.462	469
480.93	477
481.399	475
481.869	483
482.338	484
482.807	488
483.276	487
483.745	492
484.214	506
484.684	514
485.153	514
485.622	513
486.092	535
486.561	527
487.031	543
487.5	555
487.97	571
488.439	583
488.909	599
489.378	616
489.848	622
490.318	637
490.787	656
491.257	671
491.727	672
492.197	690
492.667	683
493.137	680
493.607	694
494.077	708
494.547	697
495.017	701
495.487	705
495.957	722
496.427	712
496.897	714
497.368	718
497.838	715
498.308	735
498.779	739
499.249	747
499.719	754
500.19	762
500.66	762
501.131	774
501.602	786
502.072	780
502.543	795
503.014	834
503.484	823
503.955	849
504.426	887
504.897	896
505.368	907
505.838	923
506.309	947
506.78	981
507.251	1004
507.722	1020
508.194	1050
508.665	1059
509.136	1058
509.607	1093
510.078	1107
510.549	1110
511.021	1136
511.492	1141
511.964	1157
512.435	1186
512.906	1175
513.378	1184
513.849	1209
514.321	1220
514.793	1239
515.264	1254
515.736	1256
516.208	1280
516.679	1286
517.151	1311
517.623	1316
518.095	1344
518.567	1350
519.038	1372
519.51	1375
519.982	1395
520.454	1411
520.927	1437
521.399	1463
521.871	1481
522.343	1490
522.815	1499
523.287	1500
523.76	1512
524.232	1540
524.704	1551
525.177	1532
525.649	1540
526.122	1557
526.594	1524
527.067	1564
527.539	1589
528.012	1576
528.484	1574
528.957	1571
529.43	1575
529.903	1569
530.375	1628
530.848	1601
531.321	1623
531.794	1617
532.267	1659
532.74	1634
533.213	1637
533.686	1670
534.159	1660
534.632	1696
535.105	1721
535.578	1756
536.051	1759
536.525	1771
536.998	1770
537.471	1808
537.945	1789
538.418	1828
538.891	1835
539.365	1855
539.838	1874
540.312	1873
540.786	1891
541.259	1890
541.733	1916
542.206	1929
542.68	1904
543.154	1897
543.628	1907
544.101	1965
544.575	1942
545.049	1891
545.523	1936
545.997	1945
546.471	1969
546.945	1935
547.419	1952
547.893	1884
548.367	1929
548.842	1909
549.316	1914
549.79	1934
550.264	1915
550.739	1941
551.213	1941
551.687	1943
552.162	1967
552.636	1955
553.111	1939
553.585	2002
554.06	1974
554.534	1997
555.009	1995
555.484	2037
555.958	2065
556.433	2078
556.908	2105
557.383	2075
557.858	2143
558.333	2146
558.807	2127
559.282	2143
559.757	2212
560.232	2224
560.708	2201
561.183	2174
561.658	2205
562.133	2211
562.608	2188
563.083	2246
563.559	2187
564.034	2213
564.509	2216
564.985	2221
565.46	2196
565.936	2246
566.411	2251
566.887	2222
567.362	2236
567.838	2238
568.313	2266
568.789	2232
569.265	2228
569.74	2257
570.216	2248
570.692	2283
571.168	2282
571.644	2272
572.12	2269
572.596	2299
573.071	2318
573.547	2379
574.024	2407
574.5	2438
574.976	2460
575.452	2484
575.928	2501
576.404	2515
576.881	2609
577.357	2562
577.833	2577
578.31	2646
578.786	2694
579.262	2747
579.739	2697
580.215	2768
580.692	2745
581.169	2746
581.645	2755
582.122	2828
582.598	2834
583.075	2829
583.552	2865
584.029	2852
584.506	2844
584.982	2804
585.459	2865
585.936	2842
586.413	2882
586.89	2928
587.367	2899
587.844	2965
588.321	2956
588.799	2952
589.276	2915
589.753	2956
590.23	2989
590.707	2975
591.185	2967
591.662	2977
592.139	3030
592.617	3085
593.094	3073
593.572	3077
594.049	3115
594.527	3152
595.004	3177
595.482	3253
595.96	3216
596.437	3238
596.915	3323
597.393	3266
597.871	3330
598.349	3302
598.826	3374
599.304	3369
599.782	3443
600.26	3409
600.738	3508
601.216	3501
601.694	3528
602.173	3556
602.651	3544
603.129	3489
603.607	3534
604.085	3542
604.564	3548
605.042	3558
605.52	3538
605.999	3629
606.477	3548
606.956	3563
607.434	3605.5
607.913	3648
608.391	3638
608.87	3617
609.348	3576
609.827	3615
610.306	3652
610.785	3698
611.263	3728
611.742	3681
612.221	3611
612.7	3652
613.179	3669
613.658	3627
614.137	3689
614.616	3707
615.095	3636
615.574	3705
616.053	3745
616.532	3708
617.011	3722
617.491	3736
617.97	3738
618.449	3801
618.928	3835
619.408	3795
619.887	3836
620.367	3873
620.846	3922
621.326	3892
621.805	3976
622.285	3957
622.764	3996
623.244	4006
623.724	4043
624.203	4066
624.683	3994
625.163	4070
625.643	4078
626.123	4041
626.602	4138
627.082	4070
627.562	4063
628.042	4156
628.522	4101
629.002	4067
629.482	4080
629.963	4089
630.443	4063
630.923	4079
631.403	4099
631.883	4098
632.364	4102
632.844	4071
633.324	4102
633.805	4121
634.285	4077
634.766	4053
635.246	4043
635.727	4058
636.207	4062
636.688	4085
637.168	4085
637.649	4058
638.13	4046
638.611	4075
639.091	4065
639.572	4038
640.053	4018
640.534	4051
641.015	4055
641.496	3994
641.977	4073
642.458	4036
642.939	4055
643.42	4067
643.901	4080
644.382	4129
644.863	4118
645.345	4116
645.826	4112
646.307	4130
646.788	4205
647.27	4124
647.751	4124
648.233	4155
648.714	4069
649.196	4190
649.677	4194
650.159	4189
650.64	4125
651.122	4199
651.603	4163
652.085	4210
652.567	4213
653.049	4177
653.53	4175
654.012	4239
654.494	4164
654.976	4205
655.458	4184
655.94	4182
656.422	4255
656.904	4196
657.386	4160
657.868	4159
658.35	4155
658.833	4182
659.315	4189
659.797	4139
660.279	4143
660.762	4178
661.244	4129
661.726	4070
662.209	4071
662.691	4078
663.174	4018
663.656	4032
664.139	4034
664.621	3989
665.104	3972
665.587	4025
666.069	4065
666.552	4069
667.035	4031
667.517	4042
668	4071
668.483	4070
668.966	4031
669.449	4028
669.932	4032
670.415	4065
670.898	4027
671.381	4039
671.864	4074
672.347	4036
672.83	4034
673.313	4033
673.797	4013
674.28	4110
674.763	4143
675.247	4174
675.73	4144
676.213	4162
676.697	4183
677.18	4193
677.664	4200
678.147	4196
678.631	4227
679.114	4240
679.598	4236
680.082	4285
680.565	4289
681.049	4283
681.533	4257
682.017	4292
682.5	4276
682.984	4297
683.468	4302
683.952	4219
684.436	4312
684.92	4264
685.404	4298
685.888	4337
686.372	4314
686.856	4353
687.341	4394
687.825	4331
688.309	4335
688.793	4321
689.278	4264
689.762	4316
690.246	4290
690.731	4311
691.215	4323
691.7	4206
692.184	4251
692.669	4234
693.153	4284
693.638	4218
694.122	4217
694.607	4244
695.092	4189
695.577	4223
696.061	4143
696.546	4144
697.031	4136
697.516	4162
698.001	4172
698.486	4171
698.971	4240
699.456	4144
699.941	4150
700.426	4138
700.911	4187
701.396	4166
701.881	4222
702.366	4199
702.852	4189
703.337	4204
703.822	4186
704.308	4183
704.793	4215
705.278	4226
705.764	4248
706.249	4221
706.735	4183
707.22	4191
707.706	4134
708.191	4217
708.677	4257
709.163	4205
709.648	4227
710.134	4294
710.62	4249
711.106	4263
711.592	4336
712.077	4302
712.563	4193
713.049	4174
713.535	4264
714.021	4236
714.507	4225
714.993	4199
715.479	4250
715.966	4193
716.452	4187
716.938	4196
717.424	4080
717.91	4165
718.397	4139
718.883	4117
719.369	4144
719.856	4102
720.342	4142
720.829	4094
721.315	4118
721.802	4078
722.288	4112
722.775	3947
723.262	3841
723.748	3995
724.235	4000
724.722	4080
725.208	4016
725.695	4009
726.182	3987
726.669	3924
727.156	3921
727.643	3869
728.13	3859
728.617	3823
729.104	3831
729.591	3807
730.078	3843
730.565	3854
731.052	3811
731.539	3828
732.027	3792
732.514	3741
733.001	3790
733.488	3770
733.976	3748
734.463	3742
734.951	3728
735.438	3763
735.926	3741
736.413	3780
736.901	3753
737.388	3799
737.876	3799
738.364	3765
738.851	3782
739.339	3756
739.827	3797
740.314	3695
740.802	3724
741.29	3729
741.778	3688
742.266	3680
742.754	3701
743.242	3728
743.73	3645
744.218	3632
744.706	3590
745.194	3622
745.682	3593
746.17	3616
746.659	3649
747.147	3549
747.635	3574
748.123	3552
748.612	3522
749.1	3513
749.589	3558
750.077	3534
750.566	3505
751.054	3517
751.543	3532
752.031	3467
752.52	3452
753.008	3380
753.497	3389
753.986	3371
754.474	3363
754.963	3403
755.452	3354
755.941	3345
756.43	3342
756.919	3335
757.408	3315
757.896	3325
758.385	3340
758.875	3292
759.364	3253
759.853	3225
760.342	3162
760.831	3226
761.32	3190
761.809	3133
762.299	3162
762.788	3171
763.277	3160
763.767	3126
764.256	3121
764.745	3063
765.235	3103
765.724	3011
766.214	3065
766.703	3045
767.193	3010
767.683	3024
768.172	2977
768.662	2992
769.152	2971
769.641	2976
770.131	2917
770.621	2960
771.111	2905
771.601	2885
772.09	2854
772.58	2827
773.07	2831
773.56	2868
774.05	2841
774.54	2842
775.031	2820
775.521	2804
776.011	2784
776.501	2794
776.991	2740
777.482	2767
777.972	2700
778.462	2703
778.953	2719
779.443	2701
779.933	2694
780.424	2664
780.914	2692
781.405	2700
781.895	2678
782.386	2676
782.877	2658
783.367	2606
783.858	2584
784.349	2576
784.839	2546
785.33	2552
785.821	2554
786.312	2541
786.803	2549
787.293	2559
787.784	2518
788.275	2473
788.766	2439
789.257	2483
789.748	2423
790.24	2405
790.731	2434
791.222	2389
791.713	2373
792.204	2384
792.696	2325
793.187	2355
793.678	2327
794.169	2269
794.661	2288
795.152	2265
795.644	2242
796.135	2241
796.627	2271
797.118	2226
797.61	2215
798.101	2183
798.593	2200
799.085	2183
799.576	2190
800.068	2144
800.56	2146
801.052	2089
801.544	2081
802.035	2098
802.527	2075
803.019	2049
803.511	2026
804.003	2005
804.495	2022
804.987	1998
805.479	1951
805.971	1980
806.464	1977
806.956	1939
807.448	1927
807.94	1934
808.433	1914
808.925	1917
809.417	1889
809.91	1880
810.402	1821
810.894	1835
811.387	1840
811.879	1818
812.372	1837
812.865	1807
813.357	1807
813.85	1794
814.342	1791
814.835	1789
815.328	1780
815.821	1744
816.313	1750
816.806	1752
817.299	1721
817.792	1733
818.285	1709
818.778	1727
819.271	1729
819.764	1707
820.257	1719
820.75	1728
821.243	1720
821.736	1701
822.229	1717
822.722	1719
823.216	1747
