Data from lamp4bck_noballon_Subt2__77__277.txt Node

Date: Wed Apr 09 11:11:17 CEST 2025
User: fys-lab-0081
Spectrometer: S04999
Trigger mode: 0
Resolution mode: 1024 pixels
Integration Time (sec): 1.000000E-1
Scans to average: 1
Nonlinearity correction enabled: false
Boxcar width: 0
Baseline correction enabled: true
XAxis mode: Wavelengths
Number of Pixels in Spectrum: 1024
>>>>>Begin Spectral Data<<<<<
336.42	7
336.877	6
337.334	7
337.792	6
338.249	7
338.706	7
339.164	10
339.621	5
340.079	7
340.536	6
340.994	6
341.452	9
341.909	12
342.367	7
342.825	4
343.283	9
343.741	3
344.198	6
344.656	2
345.114	9
345.572	11
346.03	8
346.488	4
346.947	5
347.405	14
347.863	9
348.321	9
348.779	13
349.238	10
349.696	14
350.154	9
350.613	11
351.071	15
351.53	21
351.988	18
352.447	13
352.905	13
353.364	19
353.823	17
354.282	15
354.74	15
355.199	20
355.658	22
356.117	17
356.576	21
357.035	20
357.494	20
357.953	24
358.412	22
358.871	19
359.33	23
359.789	22
360.249	21
360.708	21
361.167	21
361.626	24
362.086	26
362.545	29
363.005	25
363.464	26
363.924	32
364.383	29
364.843	32
365.303	35
365.762	39
366.222	34
366.682	36
367.142	35
367.601	34
368.061	35
368.521	39
368.981	35
369.441	42
369.901	45
370.361	39
370.821	41
371.282	42
371.742	45
372.202	49
372.662	46
373.123	44
373.583	49
374.043	53
374.504	48
374.964	51
375.425	52
375.885	56
376.346	60
376.806	57
377.267	57
377.728	59
378.188	60
378.649	60
379.11	67
379.571	60
380.032	66
380.493	69
380.954	74
381.414	69
381.876	75
382.337	75
382.798	84
383.259	87
383.72	89
384.181	86
384.642	92
385.104	97
385.565	97
386.026	108
386.488	104
386.949	110
387.411	111
387.872	118
388.334	117
388.795	124
389.257	127
389.719	124
390.181	124
390.642	126
391.104	136
391.566	144
392.028	146
392.49	149
392.952	151
393.414	152
393.876	151
394.338	153
394.8	162
395.262	161
395.724	171
396.186	167
396.648	171
397.111	178
397.573	184
398.035	179
398.498	188
398.96	191
399.423	190
399.885	199
400.348	203
400.81	206
401.273	213
401.736	207
402.198	228
402.661	231
403.124	231
403.587	242
404.049	244
404.512	246
404.975	250
405.438	252
405.901	260
406.364	259
406.827	260
407.29	260
407.754	260
408.217	261
408.68	261
409.143	273
409.607	281
410.07	276
410.533	281
410.997	284
411.46	284
411.924	303
412.387	301
412.851	306
413.314	315
413.778	317
414.242	323
414.705	336
415.169	327
415.633	332
416.097	331
416.561	335
417.024	347
417.488	333
417.952	341
418.416	342
418.88	341
419.344	345
419.809	347
420.273	354
420.737	359
421.201	370
421.665	382
422.13	381
422.594	393
423.059	401
423.523	408
423.987	412
424.452	421
424.916	428
425.381	445
425.846	445
426.31	454
426.775	460
427.24	470
427.704	461
428.169	468
428.634	468
429.099	468
429.564	465
430.029	480
430.494	470
430.959	479
431.424	479
431.889	496
432.354	505
432.819	491
433.284	524
433.75	525
434.215	549
434.68	551
435.146	559
435.611	580
436.077	595
436.542	598
437.008	620
437.473	625
437.939	629
438.404	647
438.87	654
439.336	639
439.801	640
440.267	658
440.733	670
441.199	675
441.665	676
442.131	706
442.596	683
443.062	709
443.529	740
443.995	754
444.461	766
444.927	800
445.393	815
445.859	844
446.325	854
446.792	917
447.258	908
447.724	937
448.191	968
448.657	969
449.124	1001
449.59	990
450.057	1052
450.523	1051
450.99	1078
451.457	1057
451.923	1096
452.39	1086
452.857	1111
453.324	1108
453.791	1122
454.257	1120
454.724	1135
455.191	1146
455.658	1147
456.125	1187
456.592	1162
457.059	1183
457.527	1208
457.994	1245
458.461	1253
458.928	1269
459.396	1263
459.863	1306
460.33	1297
460.798	1300
461.265	1327
461.732	1309
462.2	1359
462.668	1344
463.135	1366
463.603	1314
464.07	1362
464.538	1326
465.006	1364
465.474	1336
465.941	1354
466.409	1363
466.877	1335
467.345	1381
467.813	1358
468.281	1377
468.749	1398
469.217	1397
469.685	1418
470.153	1455
470.621	1451
471.09	1447
471.558	1522
472.026	1522
472.494	1565
472.963	1589
473.431	1635
473.9	1661
474.368	1706
474.837	1732
475.305	1740
475.774	1777
476.242	1823
476.711	1821
477.18	1878
477.648	1866
478.117	1873
478.586	1865
479.055	1883
479.524	1891
479.993	1888
480.462	1888
480.93	1900
481.399	1893
481.869	1907
482.338	1898
482.807	1930
483.276	1913
483.745	1912
484.214	1982
484.684	2003
485.153	2017
485.622	2042
486.092	2107
486.561	2072
487.031	2138
487.5	2180
487.97	2206
488.439	2266
488.909	2341
489.378	2420
489.848	2427
490.318	2455
490.787	2552
491.257	2581
491.727	2588
492.197	2618
492.667	2629
493.137	2660
493.607	2689
494.077	2716
494.547	2682
495.017	2672
495.487	2711
495.957	2769
496.427	2708
496.897	2717
497.368	2753
497.838	2736
498.308	2762
498.779	2814
499.249	2830
499.719	2868
500.19	2893
500.66	2898
501.131	2933
501.602	2987
502.072	2978
502.543	3034
503.014	3137
503.484	3128
503.955	3231
504.426	3349
504.897	3353
505.368	3428
505.838	3513
506.309	3601
506.78	3693
507.251	3756
507.722	3838
508.194	3936
508.665	3985
509.136	3978
509.607	4096
510.078	4119
510.549	4134
511.021	4245
511.492	4253
511.964	4316
512.435	4384
512.906	4346
513.378	4380
513.849	4448
514.321	4471
514.793	4526
515.264	4595
515.736	4623
516.208	4722
516.679	4773
517.151	4789
517.623	4827
518.095	4911
518.567	4956
519.038	5051
519.51	5024
519.982	5080
520.454	5148
520.927	5237
521.399	5337
521.871	5406
522.343	5414
522.815	5428
523.287	5426
523.76	5476
524.232	5566
524.704	5593
525.177	5511
525.649	5538
526.122	5590
526.594	5467
527.067	5604
527.539	5701
528.012	5659
528.484	5630
528.957	5654
529.43	5651
529.903	5609
530.375	5805
530.848	5688
531.321	5773
531.794	5763
532.267	5883
532.74	5796
533.213	5766
533.686	5853
534.159	5844
534.632	5996
535.105	6030
535.578	6175
536.051	6191
536.525	6198
536.998	6179
537.471	6326
537.945	6281
538.418	6383
538.891	6377
539.365	6461
539.838	6490
540.312	6463
540.786	6487
541.259	6460
541.733	6591
542.206	6623
542.68	6534
543.154	6559
543.628	6559
544.101	6686
544.575	6550
545.049	6379
545.523	6504
545.997	6495
546.471	6564
546.945	6506
547.419	6623
547.893	6404
548.367	6565
548.842	6489
549.316	6513
549.79	6541
550.264	6487
550.739	6559
551.213	6568
551.687	6564
552.162	6615
552.636	6543
553.111	6549
553.585	6761
554.06	6694
554.534	6808
555.009	6766
555.484	6874
555.958	6953
556.433	6950
556.908	7051
557.383	6971
557.858	7176
558.333	7190
558.807	7153
559.282	7227
559.757	7412
560.232	7395
560.708	7254
561.183	7195
561.658	7289
562.133	7282
562.608	7206
563.083	7383
563.559	7239
564.034	7283
564.509	7267
564.985	7277
565.46	7191
565.936	7334
566.411	7315
566.887	7224
567.362	7348
567.838	7375
568.313	7453
568.789	7275
569.265	7271
569.74	7320
570.216	7256
570.692	7357
571.168	7350
571.644	7375
572.12	7406
572.596	7475
573.071	7497
573.547	7732
574.024	7791
574.5	7827
574.976	7834
575.452	7959
575.928	8074
576.404	8165
576.881	8415
577.357	8225
577.833	8254
578.31	8478
578.786	8552
579.262	8624
579.739	8507
580.215	8740
580.692	8729
581.169	8672
581.645	8707
582.122	8990
582.598	8989
583.075	8991
583.552	9021
584.029	8937
584.506	8842
584.982	8780
585.459	9010
585.936	8903
586.413	8997
586.89	9183
587.367	9090
587.844	9215
588.321	9110
588.799	9139
589.276	9102
589.753	9246
590.23	9283
590.707	9240
591.185	9246
591.662	9268
592.139	9354
592.617	9459
593.094	9403
593.572	9475
594.049	9577
594.527	9680
595.004	9731
595.482	9972
595.96	9915
596.437	9918
596.915	10153
597.393	10000
597.871	10246
598.349	10145
598.826	10322
599.304	10287
599.782	10490
600.26	10410
600.738	10635
601.216	10584
601.694	10635
602.173	10668
602.651	10699
603.129	10503
603.607	10554
604.085	10625
604.564	10663
605.042	10739
605.52	10652
605.999	10899
606.477	10608
606.956	10628
607.434	10763.5
607.913	10899
608.391	10859
608.87	10810
609.348	10624
609.827	10647
610.306	10757
610.785	10781
611.263	10747
611.742	10652
612.221	10527
612.7	10665
613.179	10735
613.658	10620
614.137	10783
614.616	10865
615.095	10666
615.574	10826
616.053	10898
616.532	10819
617.011	10837
617.491	10944
617.97	10908
618.449	11045
618.928	11093
619.408	10981
619.887	11105
620.367	11160
620.846	11257
621.326	11177
621.805	11428
622.285	11420
622.764	11484
623.244	11489
623.724	11572
624.203	11608
624.683	11437
625.163	11646
625.643	11613
626.123	11504
626.602	11749
627.082	11487
627.562	11471
628.042	11691
628.522	11574
629.002	11477
629.482	11576
629.963	11605
630.443	11541
630.923	11542
631.403	11605
631.883	11561
632.364	11581
632.844	11478
633.324	11556
633.805	11625
634.285	11486
634.766	11383
635.246	11400
635.727	11392
636.207	11371
636.688	11368
637.168	11342
637.649	11292
638.13	11265
638.611	11342
639.091	11312
639.572	11255
640.053	11207
640.534	11286
641.015	11235
641.496	11073
641.977	11273
642.458	11186
642.939	11276
643.42	11290
643.901	11255
644.382	11358
644.863	11296
645.345	11242
645.826	11240
646.307	11234
646.788	11407
647.27	11214
647.751	11230
648.233	11301
648.714	11042
649.196	11352
649.677	11284
650.159	11289
650.64	11173
651.122	11369
651.603	11215
652.085	11316
652.567	11389
653.049	11307
653.53	11283
654.012	11426
654.494	11244
654.976	11399
655.458	11342
655.94	11311
656.422	11477
656.904	11306
657.386	11207
657.868	11225
658.35	11161
658.833	11228
659.315	11252
659.797	11077
660.279	11000
660.762	11034
661.244	10934
661.726	10803
662.209	10818
662.691	10816
663.174	10641
663.656	10715
664.139	10725
664.621	10593
665.104	10528
665.587	10677
666.069	10740
666.552	10712
667.035	10581
667.517	10601
668	10713
668.483	10696
668.966	10595
669.449	10558
669.932	10557
670.415	10674
670.898	10605
671.381	10630
671.864	10631
672.347	10456
672.83	10471
673.313	10498
673.797	10486
674.28	10702
674.763	10731
675.247	10734
675.73	10628
676.213	10723
676.697	10774
677.18	10786
677.664	10814
678.147	10774
678.631	10825
679.114	10879
679.598	10906
680.082	11005
680.565	11009
681.049	10968
681.533	10945
682.017	10969
682.5	10885
682.984	10932
683.468	10959
683.952	10777
684.436	10949
684.92	10817
685.404	10882
685.888	10990
686.372	10889
686.856	10912
687.341	11006
687.825	10879
688.309	10913
688.793	10939
689.278	10792
689.762	10857
690.246	10790
690.731	10815
691.215	10895
691.7	10650
692.184	10762
692.669	10656
693.153	10685
693.638	10498
694.122	10489
694.607	10587
695.092	10444
695.577	10505
696.061	10298
696.546	10330
697.031	10303
697.516	10415
698.001	10420
698.486	10332
698.971	10380
699.456	10142
699.941	10127
700.426	10137
700.911	10302
701.396	10241
701.881	10314
702.366	10234
702.852	10155
703.337	10190
703.822	10179
704.308	10220
704.793	10278
705.278	10293
705.764	10329
706.249	10290
706.735	10263
707.22	10325
707.706	10184
708.191	10331
708.677	10311
709.163	10150
709.648	10155
710.134	10320
710.62	10233
711.106	10279
711.592	10450
712.077	10387
712.563	10095
713.049	10054
713.535	10271
714.021	10229
714.507	10145
714.993	10003
715.479	10056
715.966	9937
716.452	9977
716.938	10046
717.424	9796
717.91	9994
718.397	9911
718.883	9856
719.369	9875
719.856	9762
720.342	9903
720.829	9794
721.315	9840
721.802	9734
722.288	9768
722.775	9365
723.262	9114
723.748	9476
724.235	9412
724.722	9538
725.208	9352
725.695	9345
726.182	9324
726.669	9226
727.156	9265
727.643	9163
728.13	9106
728.617	8989
729.104	9026
729.591	8947
730.078	9049
730.565	9060
731.052	8947
731.539	8985
732.027	8881
732.514	8728
733.001	8807
733.488	8752
733.976	8749
734.463	8728
734.951	8729
735.438	8786
735.926	8668
736.413	8701
736.901	8622
737.388	8681
737.876	8655
738.364	8628
738.851	8704
739.339	8719
739.827	8802
740.314	8503
740.802	8523
741.29	8501
741.778	8422
742.266	8433
742.754	8427
743.242	8507
743.73	8344
744.218	8322
744.706	8209
745.194	8286
745.682	8252
746.17	8268
746.659	8290
747.147	8080
747.635	8106
748.123	8039
748.612	7924
749.1	7905
749.589	8003
750.077	7992
750.566	7971
751.054	8038
751.543	8061
752.031	7872
752.52	7798
753.008	7617
753.497	7651
753.986	7636
754.474	7610
754.963	7671
755.452	7537
755.941	7477
756.43	7467
756.919	7413
757.408	7351
757.896	7371
758.385	7382
758.875	7292
759.364	7227
759.853	7137
760.342	7030
760.831	7172
761.32	7124
761.809	7031
762.299	7033
762.788	7034
763.277	6989
763.767	6864
764.256	6867
764.745	6797
765.235	6917
765.724	6713
766.214	6782
766.703	6676
767.193	6566
767.683	6563
768.172	6435
768.662	6486
769.152	6449
769.641	6458
770.131	6305
770.621	6398
771.111	6301
771.601	6282
772.09	6249
772.58	6202
773.07	6220
773.56	6254
774.05	6112
774.54	6064
775.031	6039
775.521	6035
776.011	6024
776.501	6046
776.991	5903
777.482	5944
777.972	5790
778.462	5771
778.953	5800
779.443	5755
779.933	5748
780.424	5688
780.914	5740
781.405	5741
781.895	5663
782.386	5631
782.877	5584
783.367	5470
783.858	5443
784.349	5440
784.839	5412
785.33	5432
785.821	5424
786.312	5388
786.803	5401
787.293	5402
787.784	5308
788.275	5227
788.766	5179
789.257	5251
789.748	5116
790.24	5057
790.731	5060
791.222	4955
791.713	4932
792.204	4936
792.696	4823
793.187	4904
793.678	4861
794.169	4699
794.661	4758
795.152	4688
795.644	4632
796.135	4629
796.627	4672
797.118	4567
797.61	4514
798.101	4455
798.593	4525
799.085	4449
799.576	4463
800.068	4392
800.56	4401
801.052	4309
801.544	4293
802.035	4304
802.527	4226
803.019	4174
803.511	4107
804.003	4081
804.495	4123
804.987	4089
805.479	4001
805.971	4029
806.464	4002
806.956	3882
807.448	3864
807.94	3854
808.433	3827
808.925	3810
809.417	3762
809.91	3746
810.402	3641
810.894	3660
811.387	3683
811.879	3628
812.372	3664
812.865	3643
813.357	3635
813.85	3607
814.342	3589
814.835	3570
815.328	3544
815.821	3478
816.313	3484
816.806	3479
817.299	3414
817.792	3426
818.285	3376
818.778	3419
819.271	3417
819.764	3368
820.257	3388
820.75	3385
821.243	3389
821.736	3341
822.229	3357
822.722	3347
823.216	3407
