Data from lamp4bck_noballon_Subt2__89__289.txt Node

Date: Wed Apr 09 11:11:18 CEST 2025
User: fys-lab-0081
Spectrometer: S04999
Trigger mode: 0
Resolution mode: 1024 pixels
Integration Time (sec): 1.000000E-1
Scans to average: 1
Nonlinearity correction enabled: false
Boxcar width: 0
Baseline correction enabled: true
XAxis mode: Wavelengths
Number of Pixels in Spectrum: 1024
>>>>>Begin Spectral Data<<<<<
336.42	3
336.877	7
337.334	5
337.792	5
338.249	2
338.706	6
339.164	3
339.621	5
340.079	8
340.536	8
340.994	7
341.452	10
341.909	14
342.367	11
342.825	6
343.283	6
343.741	8
344.198	7
344.656	11
345.114	5
345.572	13
346.03	7
346.488	6
346.947	9
347.405	11
347.863	11
348.321	8
348.779	14
349.238	10
349.696	13
350.154	8
350.613	9
351.071	16
351.53	19
351.988	18
352.447	13
352.905	13
353.364	17
353.823	17
354.282	20
354.74	10
355.199	17
355.658	22
356.117	19
356.576	19
357.035	18
357.494	20
357.953	22
358.412	22
358.871	23
359.33	22
359.789	20
360.249	23
360.708	21
361.167	25
361.626	28
362.086	25
362.545	25
363.005	28
363.464	28
363.924	31
364.383	29
364.843	34
365.303	32
365.762	40
366.222	34
366.682	35
367.142	41
367.601	38
368.061	35
368.521	40
368.981	37
369.441	43
369.901	42
370.361	42
370.821	41
371.282	42
371.742	45
372.202	50
372.662	46
373.123	46
373.583	47
374.043	54
374.504	49
374.964	50
375.425	53
375.885	52
376.346	59
376.806	59
377.267	54
377.728	62
378.188	63
378.649	60
379.11	60
379.571	60
380.032	69
380.493	71
380.954	74
381.414	69
381.876	75
382.337	79
382.798	84
383.259	88
383.72	87
384.181	91
384.642	94
385.104	95
385.565	105
386.026	109
386.488	107
386.949	107
387.411	108
387.872	119
388.334	120
388.795	127
389.257	126
389.719	129
390.181	130
390.642	131
391.104	133
391.566	139
392.028	146
392.49	150
392.952	148
393.414	156
393.876	157
394.338	158
394.8	161
395.262	161
395.724	171
396.186	173
396.648	173
397.111	179
397.573	185
398.035	181
398.498	189
398.96	192
399.423	198
399.885	196
400.348	202
400.81	204
401.273	211
401.736	212
402.198	228
402.661	232
403.124	227
403.587	237
404.049	243
404.512	249
404.975	254
405.438	247
405.901	262
406.364	260
406.827	260
407.29	266
407.754	260
408.217	265
408.68	269
409.143	274
409.607	281
410.07	278
410.533	279
410.997	288
411.46	289
411.924	297
412.387	299
412.851	307
413.314	315
413.778	315
414.242	324
414.705	340
415.169	336
415.633	332
416.097	333
416.561	338
417.024	351
417.488	335
417.952	348
418.416	344
418.88	346
419.344	349
419.809	355
420.273	363
420.737	356
421.201	368
421.665	384
422.13	378
422.594	398
423.059	404
423.523	409
423.987	411
424.452	422
424.916	433
425.381	449
425.846	447
426.31	456
426.775	462
427.24	471
427.704	466
428.169	470
428.634	477
429.099	477
429.564	472
430.029	479
430.494	477
430.959	482
431.424	480
431.889	497
432.354	508
432.819	498
433.284	527
433.75	526
434.215	549
434.68	545
435.146	555
435.611	575
436.077	593
436.542	597
437.008	626
437.473	629
437.939	629
438.404	646
438.87	662
439.336	651
439.801	639
440.267	665
440.733	671
441.199	682
441.665	684
442.131	707
442.596	689
443.062	715
443.529	743
443.995	757
444.461	769
444.927	811
445.393	818
445.859	851
446.325	854
446.792	920
447.258	912
447.724	937
448.191	967
448.657	980
449.124	1005
449.59	996
450.057	1059
450.523	1063
450.99	1085
451.457	1071
451.923	1102
452.39	1091
452.857	1123
453.324	1110
453.791	1131
454.257	1131
454.724	1140
455.191	1150
455.658	1154
456.125	1193
456.592	1174
457.059	1193
457.527	1216
457.994	1249
458.461	1259
458.928	1282
459.396	1270
459.863	1317
460.33	1304
460.798	1302
461.265	1334
461.732	1324
462.2	1362
462.668	1350
463.135	1372
463.603	1317
464.07	1367
464.538	1335
465.006	1375
465.474	1347
465.941	1353
466.409	1379
466.877	1334
467.345	1380
467.813	1366
468.281	1381
468.749	1400
469.217	1402
469.685	1418
470.153	1458
470.621	1459
471.09	1460
471.558	1532
472.026	1532
472.494	1584
472.963	1600
473.431	1643
473.9	1669
474.368	1712
474.837	1743
475.305	1753
475.774	1785
476.242	1835
476.711	1836
477.18	1895
477.648	1877
478.117	1884
478.586	1878
479.055	1887
479.524	1903
479.993	1907
480.462	1898
480.93	1912
481.399	1903
481.869	1923
482.338	1908
482.807	1944
483.276	1926
483.745	1930
484.214	1983
484.684	2018
485.153	2034
485.622	2052
486.092	2118
486.561	2073
487.031	2157
487.5	2193
487.97	2222
488.439	2284
488.909	2363
489.378	2441
489.848	2429
490.318	2473
490.787	2576
491.257	2597
491.727	2602
492.197	2642
492.667	2640
493.137	2677
493.607	2707
494.077	2724
494.547	2696
495.017	2681
495.487	2727
495.957	2784
496.427	2727
496.897	2726
497.368	2766
497.838	2743
498.308	2780
498.779	2823
499.249	2841
499.719	2887
500.19	2908
500.66	2924
501.131	2945
501.602	3004
502.072	2997
502.543	3047
503.014	3159
503.484	3146
503.955	3242
504.426	3362
504.897	3372
505.368	3438
505.838	3534
506.309	3620
506.78	3721
507.251	3771
507.722	3866
508.194	3964
508.665	4001
509.136	3994
509.607	4121
510.078	4142
510.549	4154
511.021	4269
511.492	4286
511.964	4346
512.435	4407
512.906	4374
513.378	4403
513.849	4485
514.321	4496
514.793	4552
515.264	4620
515.736	4661
516.208	4741
516.679	4797
517.151	4820
517.623	4854
518.095	4937
518.567	4987
519.038	5070
519.51	5053
519.982	5110
520.454	5184
520.927	5272
521.399	5368
521.871	5423
522.343	5430
522.815	5458
523.287	5454
523.76	5504
524.232	5585
524.704	5630
525.177	5538
525.649	5564
526.122	5614
526.594	5484
527.067	5637
527.539	5735
528.012	5687
528.484	5653
528.957	5680
529.43	5689
529.903	5636
530.375	5834
530.848	5724
531.321	5805
531.794	5795
532.267	5915
532.74	5823
533.213	5802
533.686	5892
534.159	5872
534.632	6020
535.105	6054
535.578	6214
536.051	6213
536.525	6229
536.998	6208
537.471	6371
537.945	6314
538.418	6424
538.891	6415
539.365	6491
539.838	6520
540.312	6506
540.786	6514
541.259	6496
541.733	6624
542.206	6649
542.68	6564
543.154	6589
543.628	6593
544.101	6723
544.575	6589
545.049	6417
545.523	6536
545.997	6533
546.471	6593
546.945	6547
547.419	6671
547.893	6448
548.367	6577
548.842	6517
549.316	6543
549.79	6569
550.264	6515
550.739	6601
551.213	6605
551.687	6595
552.162	6654
552.636	6581
553.111	6593
553.585	6805
554.06	6722
554.534	6834
555.009	6801
555.484	6898
555.958	6995
556.433	6973
556.908	7082
557.383	7005
557.858	7213
558.333	7229
558.807	7194
559.282	7252
559.757	7460
560.232	7418
560.708	7286
561.183	7226
561.658	7325
562.133	7312
562.608	7248
563.083	7417
563.559	7276
564.034	7313
564.509	7306
564.985	7317
565.46	7221
565.936	7369
566.411	7349
566.887	7266
567.362	7381
567.838	7405
568.313	7474
568.789	7319
569.265	7291
569.74	7351
570.216	7277
570.692	7391
571.168	7382
571.644	7409
572.12	7430
572.596	7502
573.071	7522
573.547	7784
574.024	7839
574.5	7870
574.976	7876
575.452	8000
575.928	8112
576.404	8207
576.881	8449
577.357	8258
577.833	8287
578.31	8525
578.786	8587
579.262	8665
579.739	8555
580.215	8777
580.692	8772
581.169	8710
581.645	8752
582.122	9018
582.598	9018
583.075	9030
583.552	9064
584.029	8983
584.506	8888
584.982	8828
585.459	9052
585.936	8935
586.413	9039
586.89	9221
587.367	9141
587.844	9271
588.321	9146
588.799	9176
589.276	9138
589.753	9290
590.23	9340
590.707	9279
591.185	9284
591.662	9310
592.139	9388
592.617	9494
593.094	9441
593.572	9508
594.049	9613
594.527	9718
595.004	9771
595.482	10012
595.96	9956
596.437	9965
596.915	10203
597.393	10043
597.871	10298
598.349	10190
598.826	10374
599.304	10334
599.782	10533
600.26	10448
600.738	10697
601.216	10640
601.694	10682
602.173	10710
602.651	10744
603.129	10562
603.607	10614
604.085	10675
604.564	10709
605.042	10796
605.52	10699
605.999	10943
606.477	10656
606.956	10676
607.434	10807
607.913	10938
608.391	10905
608.87	10862
609.348	10672
609.827	10697
610.306	10793
610.785	10823
611.263	10788
611.742	10702
612.221	10563
612.7	10725
613.179	10782
613.658	10658
614.137	10842
614.616	10905
615.095	10727
615.574	10871
616.053	10943
616.532	10855
617.011	10879
617.491	10982
617.97	10959
618.449	11095
618.928	11145
619.408	11048
619.887	11165
620.367	11190
620.846	11307
621.326	11230
621.805	11482
622.285	11468
622.764	11534
623.244	11531
623.724	11612
624.203	11657
624.683	11490
625.163	11701
625.643	11663
626.123	11544
626.602	11790
627.082	11537
627.562	11525
628.042	11743
628.522	11623
629.002	11532
629.482	11627
629.963	11657
630.443	11585
630.923	11603
631.403	11645
631.883	11605
632.364	11638
632.844	11531
633.324	11599
633.805	11673
634.285	11525
634.766	11427
635.246	11441
635.727	11441
636.207	11411
636.688	11402
637.168	11392
637.649	11338
638.13	11314
638.611	11398
639.091	11364
639.572	11310
640.053	11258
640.534	11342
641.015	11266
641.496	11131
641.977	11317
642.458	11224
642.939	11302
643.42	11337
643.901	11310
644.382	11405
644.863	11331
645.345	11288
645.826	11269
646.307	11279
646.788	11454
647.27	11265
647.751	11269
648.233	11341
648.714	11095
649.196	11401
649.677	11335
650.159	11338
650.64	11217
651.122	11412
651.603	11253
652.085	11369
652.567	11432
653.049	11348
653.53	11331
654.012	11494
654.494	11286
654.976	11433
655.458	11393
655.94	11359
656.422	11535
656.904	11356
657.386	11243
657.868	11265
658.35	11197
658.833	11292
659.315	11291
659.797	11114
660.279	11051
660.762	11075
661.244	10971
661.726	10854
662.209	10860
662.691	10846
663.174	10682
663.656	10760
664.139	10780
664.621	10641
665.104	10591
665.587	10706
666.069	10780
666.552	10762
667.035	10618
667.517	10657
668	10751
668.483	10737
668.966	10646
669.449	10608
669.932	10596
670.415	10718
670.898	10639
671.381	10669
671.864	10679
672.347	10499
672.83	10512
673.313	10538
673.797	10515
674.28	10729
674.763	10753
675.247	10775
675.73	10673
676.213	10760
676.697	10818
677.18	10829
677.664	10843
678.147	10798
678.631	10867
679.114	10939
679.598	10949
680.082	11053
680.565	11034
681.049	10999
681.533	10980
682.017	11016
682.5	10933
682.984	10980
683.468	11002
683.952	10815
684.436	10986
684.92	10861
685.404	10927
685.888	11008
686.372	10926
686.856	10943
687.341	11061
687.825	10909
688.309	10949
688.793	10971
689.278	10839
689.762	10909
690.246	10829
690.731	10871
691.215	10930
691.7	10687
692.184	10796
692.669	10704
693.153	10722
693.638	10535
694.122	10522
694.607	10635
695.092	10486
695.577	10561
696.061	10336
696.546	10364
697.031	10363
697.516	10446
698.001	10464
698.486	10371
698.971	10417
699.456	10189
699.941	10160
700.426	10187
700.911	10343
701.396	10285
701.881	10358
702.366	10274
702.852	10199
703.337	10241
703.822	10227
704.308	10257
704.793	10341
705.278	10326
705.764	10380
706.249	10322
706.735	10294
707.22	10379
707.706	10221
708.191	10378
708.677	10353
709.163	10180
709.648	10195
710.134	10353
710.62	10267
711.106	10311
711.592	10470
712.077	10439
712.563	10142
713.049	10089
713.535	10297
714.021	10271
714.507	10186
714.993	10028
715.479	10089
715.966	9968
716.452	10026
716.938	10087
717.424	9836
717.91	10027
718.397	9950
718.883	9887
719.369	9906
719.856	9800
720.342	9949
720.829	9841
721.315	9877
721.802	9773
722.288	9802
722.775	9399
723.262	9156
723.748	9505
724.235	9466
724.722	9584
725.208	9399
725.695	9386
726.182	9353
726.669	9265
727.156	9308
727.643	9187
728.13	9154
728.617	9023
729.104	9046
729.591	8987
730.078	9080
730.565	9108
731.052	8977
731.539	9015
732.027	8918
732.514	8766
733.001	8847
733.488	8783
733.976	8786
734.463	8764
734.951	8770
735.438	8827
735.926	8703
736.413	8729
736.901	8646
737.388	8704
737.876	8680
738.364	8657
738.851	8748
739.339	8756
739.827	8833
740.314	8545
740.802	8539
741.29	8532
741.778	8439
742.266	8465
742.754	8470
743.242	8543
743.73	8367
744.218	8348
744.706	8253
745.194	8332
745.682	8276
746.17	8290
746.659	8323
747.147	8117
747.635	8121
748.123	8064
748.612	7957
749.1	7935
749.589	8047
750.077	8008
750.566	7997
751.054	8061
751.543	8098
752.031	7909
752.52	7831
753.008	7657
753.497	7674
753.986	7657
754.474	7637
754.963	7698
755.452	7565
755.941	7513
756.43	7503
756.919	7440
757.408	7369
757.896	7401
758.385	7407
758.875	7309
759.364	7239
759.853	7169
760.342	7046
760.831	7208
761.32	7151
761.809	7051
762.299	7061
762.788	7051
763.277	7008
763.767	6895
764.256	6869
764.745	6813
765.235	6938
765.724	6745
766.214	6803
766.703	6690
767.193	6591
767.683	6582
768.172	6461
768.662	6496
769.152	6456
769.641	6495
770.131	6333
770.621	6414
771.111	6321
771.601	6304
772.09	6274
772.58	6220
773.07	6235
773.56	6275
774.05	6132
774.54	6086
775.031	6069
775.521	6067
776.011	6045
776.501	6061
776.991	5919
777.482	5974
777.972	5814
778.462	5790
778.953	5812
779.443	5777
779.933	5772
780.424	5710
780.914	5752
781.405	5765
781.895	5687
782.386	5655
782.877	5619
783.367	5497
783.858	5467
784.349	5456
784.839	5432
785.33	5458
785.821	5436
786.312	5394
786.803	5420
787.293	5415
787.784	5341
788.275	5245
788.766	5190
789.257	5268
789.748	5130
790.24	5078
790.731	5077
791.222	4988
791.713	4946
792.204	4956
792.696	4842
793.187	4912
793.678	4881
794.169	4733
794.661	4782
795.152	4709
795.644	4648
796.135	4648
796.627	4682
797.118	4583
797.61	4528
798.101	4474
798.593	4527
799.085	4461
799.576	4481
800.068	4399
800.56	4415
801.052	4316
801.544	4316
802.035	4316
802.527	4255
803.019	4176
803.511	4129
804.003	4099
804.495	4136
804.987	4096
805.479	4019
805.971	4036
806.464	4021
806.956	3896
807.448	3873
807.94	3867
808.433	3842
808.925	3825
809.417	3791
809.91	3759
810.402	3651
810.894	3667
811.387	3694
811.879	3633
812.372	3673
812.865	3649
813.357	3642
813.85	3620
814.342	3603
814.835	3586
815.328	3557
815.821	3496
816.313	3487
816.806	3486
817.299	3429
817.792	3438
818.285	3379
818.778	3430
819.271	3420
819.764	3381
820.257	3397
820.75	3398
821.243	3399
821.736	3346
822.229	3364
822.722	3362
823.216	3416
