Data from lamp4bck_noballon_Subt2__1__201.txt Node

Date: Wed Apr 09 11:11:08 CEST 2025
User: fys-lab-0081
Spectrometer: S04999
Trigger mode: 0
Resolution mode: 1024 pixels
Integration Time (sec): 1.000000E-1
Scans to average: 1
Nonlinearity correction enabled: false
Boxcar width: 0
Baseline correction enabled: true
XAxis mode: Wavelengths
Number of Pixels in Spectrum: 1024
>>>>>Begin Spectral Data<<<<<
336.42	12
336.877	8
337.334	8
337.792	4
338.249	8
338.706	8
339.164	4
339.621	6
340.079	8
340.536	10
340.994	8
341.452	8
341.909	12
342.367	8
342.825	6
343.283	11
343.741	5
344.198	7
344.656	5
345.114	9
345.572	9
346.03	5
346.488	7
346.947	10
347.405	15
347.863	9
348.321	11
348.779	11
349.238	10
349.696	11
350.154	9
350.613	12
351.071	18
351.53	18
351.988	15
352.447	14
352.905	12
353.364	19
353.823	18
354.282	18
354.74	13
355.199	21
355.658	19
356.117	19
356.576	21
357.035	18
357.494	19
357.953	19
358.412	24
358.871	24
359.33	25
359.789	19
360.249	27
360.708	24
361.167	28
361.626	27
362.086	25
362.545	26
363.005	30
363.464	27
363.924	30
364.383	27
364.843	33
365.303	35
365.762	36
366.222	36
366.682	36
367.142	37
367.601	38
368.061	40
368.521	40
368.981	36
369.441	46
369.901	46
370.361	38
370.821	44
371.282	46
371.742	45
372.202	47
372.662	47
373.123	49
373.583	49
374.043	53
374.504	45
374.964	46
375.425	54
375.885	54
376.346	60
376.806	60
377.267	56
377.728	64
378.188	66
378.649	65
379.11	67
379.571	60
380.032	68
380.493	72
380.954	78
381.414	77
381.876	75
382.337	78
382.798	82
383.259	88
383.72	91
384.181	91
384.642	95
385.104	97
385.565	104
386.026	105
386.488	105
386.949	110
387.411	111
387.872	119
388.334	123
388.795	122
389.257	129
389.719	131
390.181	130
390.642	132
391.104	131
391.566	142
392.028	147
392.49	150
392.952	154
393.414	156
393.876	161
394.338	157
394.8	159
395.262	161
395.724	173
396.186	175
396.648	175
397.111	180
397.573	183
398.035	184
398.498	185
398.96	192
399.423	195
399.885	197
400.348	203
400.81	206
401.273	213
401.736	214
402.198	228
402.661	232
403.124	232
403.587	241
404.049	245.5
404.512	250
404.975	257
405.438	253
405.901	263
406.364	260
406.827	263
407.29	267
407.754	267
408.217	269
408.68	269
409.143	278
409.607	284
410.07	282
410.533	280
410.997	292
411.46	292
411.924	299
412.387	301
412.851	312
413.314	317
413.778	319
414.242	323
414.705	338
415.169	335
415.633	340
416.097	334
416.561	338
417.024	351
417.488	341
417.952	350
418.416	346
418.88	349
419.344	347
419.809	355
420.273	365
420.737	360
421.201	373
421.665	382
422.13	380
422.594	396
423.059	408
423.523	411
423.987	411
424.452	425
424.916	433
425.381	449
425.846	445
426.31	457
426.775	467
427.24	479
427.704	465
428.169	477
428.634	480
429.099	471
429.564	479
430.029	480
430.494	479
430.959	486
431.424	481
431.889	497
432.354	515
432.819	498
433.284	528
433.75	531
434.215	554
434.68	550
435.146	558
435.611	582
436.077	601
436.542	603
437.008	625
437.473	630
437.939	632
438.404	649
438.87	672
439.336	655
439.801	645
440.267	667
440.733	679
441.199	683
441.665	682
442.131	714
442.596	695
443.062	717
443.529	744
443.995	757
444.461	774
444.927	809
445.393	820
445.859	853
446.325	861
446.792	919
447.258	918
447.724	951
448.191	979
448.657	981
449.124	1012
449.59	995
450.057	1063
450.523	1070
450.99	1083
451.457	1069
451.923	1108
452.39	1094
452.857	1128
453.324	1118
453.791	1133
454.257	1137
454.724	1156
455.191	1153
455.658	1153
456.125	1199
456.592	1171
457.059	1201
457.527	1221
457.994	1255
458.461	1264
458.928	1285
459.396	1281
459.863	1314
460.33	1315
460.798	1312
461.265	1338
461.732	1321
462.2	1370
462.668	1356
463.135	1379
463.603	1332
464.07	1370
464.538	1338
465.006	1376
465.474	1357
465.941	1368
466.409	1379
466.877	1345
467.345	1380
467.813	1367
468.281	1396
468.749	1408
469.217	1407
469.685	1425
470.153	1462
470.621	1462
471.09	1472
471.558	1535
472.026	1538
472.494	1584
472.963	1608
473.431	1647
473.9	1676
474.368	1716
474.837	1743
475.305	1762
475.774	1789
476.242	1838
476.711	1842
477.18	1896
477.648	1885
478.117	1891
478.586	1879
479.055	1894
479.524	1912
479.993	1916
480.462	1911
480.93	1916
481.399	1913
481.869	1930
482.338	1914
482.807	1949
483.276	1933
483.745	1926
484.214	1997
484.684	2024
485.153	2030
485.622	2058
486.092	2123
486.561	2081
487.031	2173
487.5	2207
487.97	2227
488.439	2294
488.909	2365
489.378	2440
489.848	2437
490.318	2476
490.787	2584
491.257	2609
491.727	2608
492.197	2649
492.667	2651
493.137	2688
493.607	2714
494.077	2737
494.547	2702
495.017	2696
495.487	2735
495.957	2797
496.427	2737
496.897	2733
497.368	2778
497.838	2750
498.308	2795
498.779	2844
499.249	2856
499.719	2889
500.19	2921
500.66	2934
501.131	2955
501.602	3015
502.072	3004
502.543	3058
503.014	3168
503.484	3153
503.955	3261
504.426	3372
504.897	3386
505.368	3458
505.838	3550
506.309	3632
506.78	3725
507.251	3788
507.722	3884
508.194	3974
508.665	4019
509.136	4007
509.607	4144
510.078	4148
510.549	4169
511.021	4274
511.492	4301
511.964	4363
512.435	4420
512.906	4389
513.378	4416
513.849	4500
514.321	4511
514.793	4563
515.264	4636
515.736	4670
516.208	4768
516.679	4814
517.151	4835
517.623	4872
518.095	4963
518.567	4999
519.038	5090
519.51	5063
519.982	5128
520.454	5191
520.927	5282
521.399	5390
521.871	5442
522.343	5447
522.815	5477
523.287	5467
523.76	5513
524.232	5609
524.704	5642
525.177	5541
525.649	5581
526.122	5636
526.594	5511
527.067	5657
527.539	5747
528.012	5700
528.484	5674
528.957	5696
529.43	5689
529.903	5661
530.375	5854
530.848	5735
531.321	5823
531.794	5817
532.267	5930
532.74	5846
533.213	5819
533.686	5901
534.159	5896
534.632	6031
535.105	6071
535.578	6214
536.051	6240
536.525	6258
536.998	6218
537.471	6383
537.945	6329
538.418	6431
538.891	6432
539.365	6512
539.838	6538
540.312	6516
540.786	6537
541.259	6506
541.733	6651
542.206	6670
542.68	6584
543.154	6598
543.628	6611
544.101	6732
544.575	6604
545.049	6437
545.523	6558
545.997	6552
546.471	6610
546.945	6556
547.419	6674
547.893	6454
548.367	6601
548.842	6540
549.316	6566
549.79	6591
550.264	6527
550.739	6608
551.213	6609
551.687	6602
552.162	6673
552.636	6601
553.111	6607
553.585	6825
554.06	6740
554.534	6858
555.009	6808
555.484	6923
555.958	6998
556.433	6994
556.908	7098
557.383	7031
557.858	7230
558.333	7251
558.807	7210
559.282	7279
559.757	7482
560.232	7448
560.708	7311
561.183	7244
561.658	7362
562.133	7326
562.608	7263
563.083	7429
563.559	7302
564.034	7338
564.509	7323
564.985	7341
565.46	7248
565.936	7390
566.411	7358
566.887	7275
567.362	7392
567.838	7431
568.313	7501
568.789	7329
569.265	7303
569.74	7371
570.216	7300
570.692	7404
571.168	7396
571.644	7430
572.12	7473
572.596	7527
573.071	7542
573.547	7781
574.024	7845
574.5	7884
574.976	7879
575.452	8017
575.928	8139
576.404	8222
576.881	8468
577.357	8302
577.833	8318
578.31	8534
578.786	8609
579.262	8697
579.739	8585
580.215	8807
580.692	8788
581.169	8732
581.645	8775
582.122	9039
582.598	9035
583.075	9033
583.552	9086
584.029	8997
584.506	8912
584.982	8848
585.459	9067
585.936	8957
586.413	9066
586.89	9244
587.367	9167
587.844	9287
588.321	9177
588.799	9203
589.276	9158
589.753	9325
590.23	9345
590.707	9305
591.185	9302
591.662	9345
592.139	9406
592.617	9506
593.094	9467
593.572	9547
594.049	9633
594.527	9734
595.004	9784
595.482	10028
595.96	9978
596.437	9980
596.915	10218
597.393	10066
597.871	10315
598.349	10225
598.826	10407
599.304	10350
599.782	10541
600.26	10478
600.738	10722
601.216	10662
601.694	10697
602.173	10734
602.651	10756
603.129	10566
603.607	10635
604.085	10679
604.564	10725
605.042	10800
605.52	10724
605.999	10969
606.477	10667
606.956	10687
607.434	10832.5
607.913	10978
608.391	10935
608.87	10877
609.348	10696
609.827	10714
610.306	10825
610.785	10858
611.263	10811
611.742	10714
612.221	10580
612.7	10750
613.179	10805
613.658	10686
614.137	10854
614.616	10934
615.095	10743
615.574	10886
616.053	10971
616.532	10875
617.011	10918
617.491	11010
617.97	10968
618.449	11118
618.928	11172
619.408	11069
619.887	11180
620.367	11207
620.846	11329
621.326	11253
621.805	11503
622.285	11493
622.764	11543
623.244	11550
623.724	11655
624.203	11687
624.683	11515
625.163	11721
625.643	11693
626.123	11580
626.602	11817
627.082	11570
627.562	11557
628.042	11755
628.522	11652
629.002	11577
629.482	11665
629.963	11686
630.443	11619
630.923	11638
631.403	11682
631.883	11636
632.364	11653
632.844	11563
633.324	11640
633.805	11707
634.285	11562
634.766	11457
635.246	11477
635.727	11461
636.207	11443
636.688	11442
637.168	11427
637.649	11356
638.13	11337
638.611	11422
639.091	11386
639.572	11337
640.053	11288
640.534	11354
641.015	11300
641.496	11147
641.977	11335
642.458	11245
642.939	11338
643.42	11366
643.901	11330
644.382	11428
644.863	11373
645.345	11308
645.826	11309
646.307	11304
646.788	11490
647.27	11289
647.751	11315
648.233	11378
648.714	11125
649.196	11423
649.677	11366
650.159	11361
650.64	11248
651.122	11452
651.603	11274
652.085	11409
652.567	11458
653.049	11381
653.53	11368
654.012	11504
654.494	11323
654.976	11480
655.458	11431
655.94	11385
656.422	11562
656.904	11373
657.386	11278
657.868	11283
658.35	11217
658.833	11317
659.315	11327
659.797	11154
660.279	11085
660.762	11100
661.244	11021
661.726	10874
662.209	10883
662.691	10883
663.174	10720
663.656	10805
664.139	10799
664.621	10670
665.104	10595
665.587	10748
666.069	10824
666.552	10783
667.035	10652
667.517	10664
668	10779
668.483	10777
668.966	10668
669.449	10634
669.932	10627
670.415	10750
670.898	10675
671.381	10705
671.864	10702
672.347	10531
672.83	10542
673.313	10569
673.797	10552
674.28	10761
674.763	10801
675.247	10802
675.73	10699
676.213	10792
676.697	10842
677.18	10843
677.664	10864
678.147	10843
678.631	10896
679.114	10961
679.598	10972
680.082	11071
680.565	11077
681.049	11041
681.533	11011
682.017	11048
682.5	10967
682.984	11000
683.468	11024
683.952	10846
684.436	11013
684.92	10901
685.404	10960
685.888	11048
686.372	10962
686.856	10965
687.341	11075
687.825	10941
688.309	10967
688.793	11000
689.278	10852
689.762	10938
690.246	10872
690.731	10907
691.215	10958
691.7	10714
692.184	10832
692.669	10744
693.153	10751
693.638	10582
694.122	10555
694.607	10673
695.092	10523
695.577	10586
696.061	10365
696.546	10392
697.031	10372
697.516	10474
698.001	10505
698.486	10391
698.971	10449
699.456	10221
699.941	10187
700.426	10204
700.911	10354
701.396	10311
701.881	10377
702.366	10295
702.852	10219
703.337	10265
703.822	10259
704.308	10270
704.793	10343
705.278	10370
705.764	10416
706.249	10358
706.735	10325
707.22	10402
707.706	10267
708.191	10417
708.677	10392
709.163	10235
709.648	10229
710.134	10388
710.62	10301
711.106	10339
711.592	10497
712.077	10460
712.563	10159
713.049	10125
713.535	10350
714.021	10294
714.507	10214
714.993	10076
715.479	10144
715.966	10002
716.452	10044
716.938	10129
717.424	9862
717.91	10065
718.397	9978
718.883	9904
719.369	9956
719.856	9825
720.342	9994
720.829	9866
721.315	9911
721.802	9810
722.288	9817
722.775	9439
723.262	9171
723.748	9537
724.235	9502
724.722	9620
725.208	9429
725.695	9419
726.182	9406
726.669	9305
727.156	9343
727.643	9219
728.13	9170
728.617	9060
729.104	9079
729.591	9012
730.078	9107
730.565	9133
731.052	9011
731.539	9030
732.027	8949
732.514	8798
733.001	8869
733.488	8808
733.976	8817
734.463	8784
734.951	8789
735.438	8862
735.926	8737
736.413	8754
736.901	8681
737.388	8745
737.876	8719
738.364	8699
738.851	8772
739.339	8791
739.827	8856
740.314	8564
740.802	8579
741.29	8558
741.778	8475
742.266	8484
742.754	8502
743.242	8558
743.73	8391
744.218	8368
744.706	8284
745.194	8360
745.682	8304
746.17	8340
746.659	8345
747.147	8136
747.635	8166
748.123	8098
748.612	7988
749.1	7961
749.589	8071
750.077	8047
750.566	8030
751.054	8102
751.543	8113
752.031	7928
752.52	7861
753.008	7677
753.497	7695
753.986	7690
754.474	7671
754.963	7724
755.452	7590
755.941	7545
756.43	7535
756.919	7474
757.408	7404
757.896	7423
758.385	7439
758.875	7341
759.364	7275
759.853	7190
760.342	7074
760.831	7230
761.32	7174
761.809	7086
762.299	7095
762.788	7075
763.277	7042
763.767	6925
764.256	6901
764.745	6850
765.235	6975
765.724	6764
766.214	6830
766.703	6723
767.193	6624
767.683	6618
768.172	6491
768.662	6531
769.152	6496
769.641	6508
770.131	6354
770.621	6448
771.111	6344
771.601	6330
772.09	6302
772.58	6242
773.07	6260
773.56	6289
774.05	6147
774.54	6107
775.031	6095
775.521	6087
776.011	6069
776.501	6090
776.991	5957
777.482	5996
777.972	5847
778.462	5815
778.953	5843
779.443	5803
779.933	5785
780.424	5738
780.914	5780
781.405	5773
781.895	5718
782.386	5683
782.877	5638
783.367	5523
783.858	5477
784.349	5484
784.839	5453
785.33	5481
785.821	5457
786.312	5425
786.803	5438
787.293	5443
787.784	5358
788.275	5277
788.766	5214
789.257	5297
789.748	5162
790.24	5091
790.731	5106
791.222	5009
791.713	4967
792.204	4978
792.696	4860
793.187	4939
793.678	4900
794.169	4746
794.661	4803
795.152	4733
795.644	4683
796.135	4671
796.627	4700
797.118	4602
797.61	4559
798.101	4496
798.593	4542
799.085	4477
799.576	4496
800.068	4429
800.56	4425
801.052	4338
801.544	4335
802.035	4336
802.527	4265
803.019	4194
803.511	4145
804.003	4110
804.495	4149
804.987	4112
805.479	4036
805.971	4063
806.464	4029
806.956	3916
807.448	3896
807.94	3893
808.433	3862
808.925	3843
809.417	3794
809.91	3776
810.402	3673
810.894	3680
811.387	3711
811.879	3654
812.372	3688
812.865	3672
813.357	3666
813.85	3642
814.342	3612
814.835	3612
815.328	3578
815.821	3512
816.313	3519
816.806	3503
817.299	3450
817.792	3468
818.285	3404
818.778	3441
819.271	3436
819.764	3397
820.257	3415
820.75	3410
821.243	3412
821.736	3365
822.229	3382
822.722	3373
823.216	3435
