Data from lamp2helium_zwak_Subt4__4__190.txt Node

Date: Fri Apr 04 10:55:43 CEST 2025
User: fys-lab-0081
Spectrometer: S04999
Trigger mode: 0
Resolution mode: 1024 pixels
Integration Time (sec): 1.000000E-1
Scans to average: 1
Nonlinearity correction enabled: false
Boxcar width: 0
Baseline correction enabled: true
XAxis mode: Wavelengths
Number of Pixels in Spectrum: 1024
>>>>>Begin Spectral Data<<<<<
336.42	-2
336.877	-1
337.334	0
337.792	0
338.249	0
338.706	6
339.164	0
339.621	3
340.079	2
340.536	-1
340.994	0
341.452	4
341.909	-2
342.367	0
342.825	7
343.283	4
343.741	7
344.198	-4
344.656	-3
345.114	4
345.572	-3
346.03	2
346.488	-3
346.947	4
347.405	2
347.863	1
348.321	-1
348.779	3
349.238	2
349.696	0
350.154	-1
350.613	2
351.071	4
351.53	0
351.988	3
352.447	0
352.905	-1
353.364	1
353.823	7
354.282	-2
354.74	0
355.199	0
355.658	1
356.117	4
356.576	0
357.035	-2
357.494	3
357.953	-1
358.412	-4
358.871	-3
359.33	2
359.789	3
360.249	1
360.708	4
361.167	-1
361.626	2
362.086	1
362.545	1
363.005	-4
363.464	4
363.924	2
364.383	1
364.843	-2
365.303	-2
365.762	3
366.222	8
366.682	-1
367.142	-3
367.601	-2
368.061	5
368.521	9
368.981	5
369.441	5
369.901	-1
370.361	4
370.821	8
371.282	1
371.742	-1
372.202	3
372.662	4
373.123	5
373.583	1
374.043	4
374.504	-2
374.964	5
375.425	1
375.885	4
376.346	4
376.806	0
377.267	4
377.728	-7
378.188	6
378.649	2
379.11	-1
379.571	-4
380.032	0
380.493	0
380.954	7
381.414	2
381.876	5
382.337	2
382.798	2
383.259	6
383.72	-1
384.181	5
384.642	1
385.104	2
385.565	2
386.026	0
386.488	2
386.949	0
387.411	8
387.872	3
388.334	2
388.795	2
389.257	3
389.719	4
390.181	3
390.642	2
391.104	5
391.566	4
392.028	0
392.49	2
392.952	4
393.414	1
393.876	4
394.338	4
394.8	3
395.262	4
395.724	5
396.186	6
396.648	3
397.111	7
397.573	1
398.035	-1
398.498	3
398.96	5
399.423	9
399.885	2
400.348	6
400.81	6
401.273	5
401.736	3
402.198	4
402.661	8
403.124	7
403.587	8
404.049	6
404.512	4
404.975	5
405.438	8
405.901	3
406.364	2
406.827	6
407.29	3
407.754	11
408.217	3
408.68	5
409.143	8
409.607	7
410.07	1
410.533	6
410.997	6
411.46	10
411.924	6
412.387	6
412.851	2
413.314	10
413.778	9
414.242	9
414.705	7
415.169	7
415.633	9
416.097	11
416.561	10
417.024	9
417.488	10
417.952	9
418.416	6
418.88	14
419.344	5
419.809	5
420.273	8
420.737	11
421.201	7
421.665	8
422.13	10
422.594	9
423.059	8
423.523	4
423.987	8
424.452	10
424.916	7
425.381	7
425.846	15
426.31	12
426.775	5
427.24	10
427.704	7
428.169	13
428.634	15
429.099	7
429.564	16
430.029	8
430.494	13
430.959	14
431.424	10
431.889	11
432.354	10
432.819	14
433.284	13
433.75	11
434.215	14
434.68	11
435.146	10
435.611	15
436.077	14
436.542	14
437.008	15
437.473	12
437.939	11
438.404	15
438.87	13
439.336	9
439.801	14
440.267	17
440.733	13
441.199	15
441.665	17
442.131	17
442.596	14
443.062	17
443.529	13
443.995	13
444.461	22
444.927	18
445.393	16
445.859	23
446.325	18
446.792	24
447.258	20
447.724	23
448.191	22
448.657	23
449.124	21
449.59	19
450.057	20
450.523	23
450.99	26
451.457	30
451.923	26
452.39	26
452.857	23
453.324	27
453.791	27
454.257	29
454.724	29
455.191	20
455.658	18
456.125	27
456.592	30
457.059	27
457.527	20
457.994	23
458.461	28
458.928	25
459.396	29
459.863	31
460.33	30
460.798	31
461.265	28
461.732	28
462.2	32
462.668	31
463.135	28
463.603	26
464.07	34
464.538	32
465.006	30
465.474	26
465.941	33
466.409	34
466.877	28
467.345	31
467.813	30
468.281	30
468.749	32
469.217	37
469.685	33
470.153	27
470.621	32
471.09	34
471.558	35
472.026	37
472.494	32
472.963	35
473.431	39
473.9	41
474.368	42
474.837	44
475.305	43
475.774	43
476.242	41
476.711	47
477.18	46
477.648	45
478.117	43
478.586	42
479.055	45
479.524	41
479.993	45
480.462	45
480.93	48
481.399	41
481.869	47
482.338	44
482.807	44
483.276	45
483.745	49
484.214	50
484.684	43
485.153	48
485.622	49
486.092	50
486.561	47
487.031	48
487.5	49
487.97	53
488.439	50
488.909	51
489.378	53
489.848	57
490.318	53
490.787	57
491.257	60
491.727	60
492.197	63
492.667	64
493.137	64
493.607	66
494.077	62
494.547	65
495.017	59
495.487	64
495.957	68
496.427	62
496.897	67
497.368	67
497.838	63
498.308	58
498.779	70
499.249	71
499.719	65
500.19	62
500.66	71
501.131	70
501.602	75
502.072	68
502.543	65
503.014	69
503.484	72
503.955	76
504.426	80
504.897	76
505.368	80
505.838	82
506.309	84
506.78	91
507.251	82
507.722	96
508.194	91
508.665	90
509.136	93
509.607	98
510.078	96
510.549	102
511.021	103
511.492	99
511.964	98
512.435	103
512.906	106
513.378	107
513.849	109
514.321	109
514.793	101
515.264	107
515.736	109
516.208	118
516.679	110
517.151	116
517.623	115
518.095	119
518.567	122
519.038	114
519.51	120
519.982	123
520.454	134
520.927	126
521.399	132
521.871	127
522.343	128
522.815	129
523.287	132
523.76	136
524.232	135
524.704	137
525.177	136
525.649	136
526.122	139
526.594	138
527.067	137
527.539	141
528.012	143
528.484	140
528.957	140
529.43	144
529.903	138
530.375	143
530.848	142
531.321	142
531.794	143
532.267	145
532.74	145
533.213	143
533.686	155
534.159	143
534.632	147
535.105	154
535.578	152
536.051	150
536.525	155
536.998	152
537.471	162
537.945	156
538.418	160
538.891	160
539.365	162
539.838	164
540.312	168
540.786	165
541.259	164
541.733	170
542.206	169
542.68	166
543.154	164
543.628	164
544.101	174
544.575	163
545.049	163
545.523	173
545.997	167
546.471	173
546.945	166
547.419	176
547.893	167
548.367	168
548.842	171
549.316	164
549.79	166
550.264	167
550.739	174
551.213	170
551.687	169
552.162	176
552.636	168
553.111	179
553.585	173
554.06	174
554.534	178
555.009	179
555.484	177
555.958	181
556.433	182
556.908	185
557.383	178
557.858	186
558.333	191
558.807	189
559.282	184
559.757	191
560.232	198
560.708	194
561.183	193
561.658	191
562.133	196
562.608	195
563.083	200
563.559	192
564.034	199
564.509	190
564.985	195
565.46	195
565.936	196
566.411	200
566.887	194
567.362	197
567.838	197
568.313	198
568.789	201
569.265	203
569.74	199
570.216	198
570.692	193
571.168	196
571.644	205
572.12	202
572.596	205
573.071	204
573.547	204
574.024	211
574.5	213
574.976	208
575.452	214
575.928	218
576.404	220
576.881	228
577.357	225
577.833	222
578.31	232
578.786	235
579.262	244
579.739	234
580.215	243
580.692	247
581.169	246
581.645	238
582.122	248
582.598	247
583.075	247
583.552	248
584.029	249
584.506	248
584.982	249
585.459	254
585.936	251
586.413	259
586.89	259
587.367	254
587.844	269
588.321	263
588.799	262
589.276	258
589.753	264
590.23	265
590.707	269
591.185	261
591.662	266
592.139	263
592.617	269
593.094	268
593.572	277
594.049	270
594.527	284
595.004	277
595.482	285
595.96	287
596.437	283
596.915	292
597.393	285
597.871	290
598.349	290
598.826	297
599.304	303
599.782	309
600.26	305
600.738	309
601.216	306
601.694	308
602.173	314
602.651	315
603.129	310
603.607	314
604.085	319
604.564	310
605.042	322
605.52	314
605.999	322
606.477	328
606.956	314
607.434	318
607.913	322
608.391	316
608.87	330
609.348	319
609.827	319
610.306	322
610.785	320
611.263	328
611.742	324
612.221	323
612.7	320
613.179	319
613.658	321
614.137	330
614.616	333
615.095	326
615.574	332
616.053	330
616.532	329
617.011	334
617.491	331
617.97	334
618.449	333
618.928	334
619.408	345
619.887	344
620.367	346
620.846	342
621.326	351
621.805	351
622.285	346
622.764	353
623.244	352
623.724	361
624.203	360
624.683	356
625.163	360
625.643	360
626.123	359
626.602	373
627.082	364
627.562	361
628.042	369
628.522	366
629.002	371
629.482	374
629.963	365
630.443	364
630.923	363
631.403	371
631.883	364
632.364	371
632.844	374
633.324	369
633.805	372
634.285	365
634.766	373
635.246	364
635.727	371
636.207	371
636.688	369
637.168	372
637.649	359
638.13	367
638.611	369
639.091	367
639.572	369
640.053	365
640.534	368
641.015	373
641.496	364
641.977	366
642.458	360
642.939	367
643.42	370
643.901	371
644.382	372
644.863	371
645.345	373
645.826	371
646.307	372
646.788	376
647.27	374
647.751	381
648.233	381
648.714	371
649.196	383
649.677	381
650.159	387
650.64	379
651.122	392
651.603	381
652.085	380
652.567	384
653.049	376
653.53	379
654.012	391
654.494	379
654.976	382
655.458	383
655.94	384
656.422	387
656.904	383
657.386	379
657.868	377
658.35	381
658.833	386
659.315	383
659.797	376
660.279	380
660.762	386
661.244	378
661.726	373
662.209	378
662.691	377
663.174	373
663.656	371
664.139	376
664.621	376
665.104	373
665.587	379
666.069	370
666.552	374
667.035	369
667.517	371
668	371
668.483	377
668.966	376
669.449	365
669.932	370
670.415	379
670.898	373
671.381	375
671.864	371
672.347	373
672.83	374
673.313	381
673.797	373
674.28	382
674.763	383
675.247	378
675.73	382
676.213	382
676.697	392
677.18	387
677.664	385
678.147	392
678.631	390
679.114	397
679.598	390
680.082	397
680.565	404
681.049	397
681.533	390
682.017	399
682.5	405
682.984	410
683.468	402
683.952	398
684.436	393
684.92	399
685.404	400
685.888	405
686.372	404
686.856	408
687.341	409
687.825	403
688.309	406
688.793	404
689.278	399
689.762	401
690.246	410
690.731	402
691.215	410
691.7	396
692.184	397
692.669	404
693.153	399
693.638	395
694.122	397
694.607	400
695.092	399
695.577	398
696.061	398
696.546	394
697.031	396
697.516	399
698.001	403
698.486	396
698.971	403
699.456	391
699.941	393
700.426	399
700.911	399
701.396	393
701.881	392
702.366	392
702.852	398
703.337	392
703.822	389
704.308	384
704.793	390
705.278	391
705.764	394
706.249	397
706.735	395
707.22	405
707.706	397
708.191	400
708.677	398
709.163	401
709.648	403
710.134	411
710.62	400
711.106	401
711.592	399
712.077	405
712.563	398
713.049	392
713.535	399
714.021	406
714.507	399
714.993	397
715.479	397
715.966	394
716.452	398
716.938	401
717.424	388
717.91	399
718.397	394
718.883	394
719.369	388
719.856	388
720.342	394
720.829	381
721.315	389
721.802	384
722.288	393
722.775	373
723.262	372
723.748	388
724.235	384
724.722	387
725.208	377
725.695	380
726.182	381
726.669	376
727.156	375
727.643	369
728.13	366
728.617	372
729.104	369
729.591	370
730.078	371
730.565	375
731.052	367
731.539	369
732.027	371
732.514	360
733.001	367
733.488	366
733.976	361
734.463	367
734.951	370
735.438	369
735.926	358
736.413	367
736.901	354
737.388	363
737.876	361
738.364	363
738.851	359
739.339	361
739.827	362
740.314	357
740.802	354
741.29	362
741.778	356
742.266	362
742.754	354
743.242	360
743.73	356
744.218	356
744.706	352
745.194	361
745.682	358
746.17	358
746.659	360
747.147	352
747.635	350
748.123	356
748.612	349
749.1	346
749.589	348
750.077	350
750.566	341
751.054	343
751.543	344
752.031	340
752.52	341
753.008	332
753.497	329
753.986	339
754.474	336
754.963	336
755.452	336
755.941	332
756.43	326
756.919	326
757.408	325
757.896	327
758.385	334
758.875	328
759.364	323
759.853	314
760.342	311
760.831	321
761.32	321
761.809	320
762.299	318
762.788	322
763.277	320
763.767	320
764.256	313
764.745	301
765.235	312
765.724	303
766.214	310
766.703	308
767.193	307
767.683	305
768.172	303
768.662	300
769.152	300
769.641	307
770.131	298
770.621	296
771.111	288
771.601	290
772.09	295
772.58	290
773.07	292
773.56	296
774.05	283
774.54	288
775.031	283
775.521	284
776.011	284
776.501	280
776.991	281
777.482	287
777.972	282
778.462	277
778.953	285
779.443	278
779.933	281
780.424	271
780.914	275
781.405	273
781.895	275
782.386	270
782.877	273
783.367	266
783.858	271
784.349	265
784.839	262
785.33	265
785.821	266
786.312	264
786.803	264
787.293	263
787.784	261
788.275	256
788.766	250
789.257	262
789.748	252
790.24	251
790.731	253
791.222	254
791.713	250
792.204	252
792.696	250
793.187	251
793.678	247
794.169	247
794.661	246
795.152	246
795.644	242
796.135	245
796.627	247
797.118	235
797.61	240
798.101	239
798.593	243
799.085	240
799.576	235
800.068	236
800.56	226
801.052	236
801.544	227
802.035	226
802.527	224
803.019	226
803.511	225
804.003	222
804.495	221
804.987	220
805.479	215
805.971	211
806.464	221
806.956	214
807.448	215
807.94	211
808.433	212
808.925	214
809.417	216
809.91	211
810.402	209
810.894	212
811.387	213
811.879	209
812.372	207
812.865	205
813.357	195
813.85	203
814.342	201
814.835	202
815.328	202
815.821	200
816.313	201
816.806	204
817.299	199
817.792	205
818.285	199
818.778	205
819.271	201
819.764	198
820.257	198
820.75	203
821.243	195
821.736	194
822.229	197
822.722	195
823.216	203
