Data from lamp4bck_Subt2__2__502.txt Node

Date: Wed Apr 09 11:16:16 CEST 2025
User: fys-lab-0081
Spectrometer: S04999
Trigger mode: 0
Resolution mode: 1024 pixels
Integration Time (sec): 1.000000E-1
Scans to average: 1
Nonlinearity correction enabled: false
Boxcar width: 0
Baseline correction enabled: true
XAxis mode: Wavelengths
Number of Pixels in Spectrum: 1024
>>>>>Begin Spectral Data<<<<<
336.42	1
336.877	2
337.334	4
337.792	4
338.249	6
338.706	5
339.164	4
339.621	5
340.079	3
340.536	0
340.994	3
341.452	2
341.909	8
342.367	4
342.825	4
343.283	2
343.741	-1
344.198	1
344.656	2
345.114	3
345.572	10
346.03	3
346.488	2
346.947	4
347.405	5
347.863	4
348.321	3
348.779	6
349.238	5
349.696	6
350.154	5
350.613	5
351.071	5
351.53	6
351.988	7
352.447	5
352.905	4
353.364	6
353.823	7
354.282	7
354.74	5
355.199	9
355.658	8
356.117	6
356.576	9
357.035	5
357.494	8
357.953	7
358.412	8
358.871	6
359.33	7
359.789	8
360.249	9
360.708	8
361.167	10
361.626	7
362.086	6
362.545	14
363.005	11
363.464	13
363.924	8
364.383	8
364.843	12
365.303	15
365.762	15
366.222	11
366.682	11
367.142	15
367.601	16
368.061	14
368.521	12
368.981	12
369.441	17
369.901	19
370.361	13
370.821	12
371.282	15
371.742	18
372.202	16
372.662	22
373.123	16
373.583	19
374.043	22
374.504	18
374.964	19
375.425	17
375.885	17
376.346	26
376.806	22
377.267	19
377.728	21
378.188	29
378.649	20
379.11	25
379.571	18
380.032	26
380.493	24
380.954	28
381.414	22
381.876	27
382.337	26
382.798	24
383.259	33
383.72	33
384.181	30
384.642	35
385.104	31
385.565	39
386.026	40
386.488	41
386.949	40
387.411	45
387.872	44
388.334	49
388.795	45
389.257	49
389.719	48
390.181	47
390.642	47
391.104	49
391.566	55
392.028	53
392.49	62
392.952	59
393.414	57
393.876	61
394.338	57
394.8	62
395.262	57
395.724	67
396.186	67
396.648	63
397.111	63
397.573	72
398.035	66
398.498	75
398.96	74
399.423	67
399.885	74
400.348	76
400.81	75
401.273	78
401.736	76
402.198	88
402.661	86
403.124	79
403.587	93
404.049	93
404.512	93
404.975	93
405.438	97
405.901	99
406.364	99
406.827	97
407.29	99
407.754	99
408.217	97
408.68	100
409.143	103
409.607	110
410.07	105
410.533	102
410.997	108
411.46	109
411.924	113
412.387	114
412.851	116
413.314	118
413.778	122
414.242	119
414.705	127
415.169	128
415.633	127
416.097	124
416.561	131
417.024	132
417.488	128
417.952	135
418.416	134
418.88	128
419.344	130
419.809	138
420.273	138
420.737	135
421.201	141
421.665	142
422.13	148
422.594	150
423.059	154
423.523	156
423.987	155
424.452	167
424.916	166
425.381	169
425.846	167
426.31	177
426.775	178
427.24	180
427.704	179
428.169	181
428.634	186
429.099	185
429.564	183
430.029	181
430.494	182
430.959	182
431.424	186
431.889	190
432.354	197
432.819	189
433.284	205
433.75	204
434.215	215
434.68	208
435.146	210
435.611	220
436.077	229
436.542	232
437.008	232
437.473	238
437.939	242
438.404	249
438.87	256
439.336	245
439.801	249
440.267	255
440.733	260
441.199	260
441.665	261
442.131	269
442.596	262
443.062	276
443.529	288
443.995	291
444.461	296
444.927	307
445.393	309
445.859	320
446.325	327
446.792	348
447.258	346
447.724	360
448.191	371
448.657	375
449.124	383
449.59	379
450.057	409
450.523	410
450.99	415
451.457	413
451.923	422
452.39	423
452.857	437
453.324	427
453.791	433
454.257	439
454.724	442
455.191	445
455.658	449
456.125	462
456.592	453
457.059	462
457.527	469
457.994	478
458.461	487
458.928	495
459.396	493
459.863	506
460.33	501
460.798	508
461.265	515
461.732	516
462.2	527
462.668	520
463.135	530
463.603	515
464.07	535
464.538	518
465.006	538
465.474	524
465.941	531
466.409	530
466.877	517
467.345	536
467.813	529
468.281	539
468.749	544
469.217	541
469.685	554
470.153	568
470.621	568
471.09	570
471.558	591
472.026	601
472.494	616
472.963	617
473.431	638
473.9	646
474.368	668
474.837	677
475.305	680
475.774	690
476.242	708
476.711	717
477.18	738
477.648	727
478.117	732
478.586	740
479.055	742
479.524	739
479.993	741
480.462	744
480.93	746
481.399	752
481.869	753
482.338	745
482.807	761
483.276	761
483.745	751
484.214	772
484.684	787
485.153	795
485.622	804
486.092	828
486.561	809
487.031	842
487.5	853
487.97	861
488.439	888
488.909	911
489.378	943
489.848	942
490.318	961
490.787	1009
491.257	1010
491.727	1017
492.197	1029
492.667	1036
493.137	1051
493.607	1055
494.077	1067
494.547	1052
495.017	1058
495.487	1073
495.957	1097
496.427	1080
496.897	1074
497.368	1092
497.838	1086
498.308	1098
498.779	1112
499.249	1112
499.719	1130
500.19	1142
500.66	1146
501.131	1160
501.602	1180
502.072	1174
502.543	1203
503.014	1249
503.484	1243
503.955	1286
504.426	1336
504.897	1334
505.368	1363
505.838	1395
506.309	1417
506.78	1466
507.251	1490
507.722	1524
508.194	1567
508.665	1583
509.136	1575
509.607	1628
510.078	1640
510.549	1643
511.021	1686
511.492	1686
511.964	1708
512.435	1741
512.906	1737
513.378	1754
513.849	1785
514.321	1791
514.793	1806
515.264	1834
515.736	1851
516.208	1896
516.679	1908
517.151	1937
517.623	1941
518.095	1972
518.567	1984
519.038	2030
519.51	2024
519.982	2044
520.454	2052
520.927	2094
521.399	2138
521.871	2155
522.343	2154
522.815	2179
523.287	2187
523.76	2215
524.232	2247
524.704	2259
525.177	2229
525.649	2241
526.122	2270
526.594	2217
527.067	2273
527.539	2305
528.012	2287
528.484	2280
528.957	2300
529.43	2288
529.903	2272
530.375	2347
530.848	2299
531.321	2339
531.794	2348
532.267	2397
532.74	2372
533.213	2360
533.686	2393
534.159	2392
534.632	2457
535.105	2476
535.578	2536
536.051	2550
536.525	2541
536.998	2536
537.471	2594
537.945	2548
538.418	2587
538.891	2578
539.365	2626
539.838	2651
540.312	2644
540.786	2657
541.259	2653
541.733	2704
542.206	2721
542.68	2681
543.154	2685
543.628	2705
544.101	2760
544.575	2723
545.049	2657
545.523	2705
545.997	2719
546.471	2723
546.945	2707
547.419	2737
547.893	2648
548.367	2686
548.842	2666
549.316	2688
549.79	2712
550.264	2692
550.739	2724
551.213	2717
551.687	2714
552.162	2756
552.636	2730
553.111	2736
553.585	2831
554.06	2803
554.534	2849
555.009	2835
555.484	2887
555.958	2907
556.433	2899
556.908	2932
557.383	2934
557.858	3008
558.333	3017
558.807	2998
559.282	3036
559.757	3105
560.232	3103
560.708	3053
561.183	3035
561.658	3091
562.133	3068
562.608	3037
563.083	3121
563.559	3061
564.034	3075
564.509	3074
564.985	3081
565.46	3034
565.936	3101
566.411	3111
566.887	3072
567.362	3102
567.838	3110
568.313	3143
568.789	3089
569.265	3081
569.74	3115
570.216	3087
570.692	3153
571.168	3150
571.644	3158
572.12	3169
572.596	3212
573.071	3213
573.547	3308
574.024	3357
574.5	3367
574.976	3362
575.452	3410
575.928	3445
576.404	3468
576.881	3580
577.357	3524
577.833	3546
578.31	3639
578.786	3672
579.262	3718
579.739	3660
580.215	3778
580.692	3787
581.169	3757
581.645	3756
582.122	3869
582.598	3871
583.075	3899
583.552	3931
584.029	3894
584.506	3851
584.982	3841
585.459	3939
585.936	3880
586.413	3926
586.89	3998
587.367	3948
587.844	3998
588.321	3957
588.799	3993
589.276	3965
589.753	4026
590.23	4044
590.707	4024
591.185	4027
591.662	4050
592.139	4081
592.617	4132
593.094	4109
593.572	4162
594.049	4220
594.527	4273
595.004	4282
595.482	4394
595.96	4400
596.437	4406
596.915	4492
597.393	4407
597.871	4499
598.349	4478
598.826	4570
599.304	4572
599.782	4669
600.26	4603
600.738	4721
601.216	4683
601.694	4701
602.173	4730
602.651	4738
603.129	4682
603.607	4716
604.085	4744
604.564	4751
605.042	4763
605.52	4717
605.999	4838
606.477	4702
606.956	4701
607.434	4758.5
607.913	4816
608.391	4808
608.87	4792
609.348	4711
609.827	4715
610.306	4765
610.785	4785
611.263	4816
611.742	4776
612.221	4722
612.7	4787
613.179	4803
613.658	4763
614.137	4829
614.616	4856
615.095	4772
615.574	4831
616.053	4857
616.532	4817
617.011	4836
617.491	4882
617.97	4843
618.449	4896
618.928	4917
619.408	4890
619.887	4948
620.367	4950
620.846	5008
621.326	4981
621.805	5113
622.285	5091
622.764	5122
623.244	5121
623.724	5151
624.203	5189
624.683	5154
625.163	5261
625.643	5263
626.123	5247
626.602	5370
627.082	5246
627.562	5233
628.042	5326
628.522	5246
629.002	5167
629.482	5218
629.963	5251
630.443	5214
630.923	5257
631.403	5263
631.883	5200
632.364	5222
632.844	5201
633.324	5239
633.805	5259
634.285	5181
634.766	5117
635.246	5124
635.727	5114
636.207	5099
636.688	5107
637.168	5102
637.649	5051
638.13	5009
638.611	5067
639.091	5092
639.572	5092
640.053	5081
640.534	5157
641.015	5162
641.496	5068
641.977	5139
642.458	5092
642.939	5108
643.42	5121
643.901	5111
644.382	5148
644.863	5101
645.345	5092
645.826	5089
646.307	5073
646.788	5164
647.27	5075
647.751	5063
648.233	5091
648.714	4974
649.196	5107
649.677	5080
650.159	5069
650.64	5029
651.122	5113
651.603	5019
652.085	5055
652.567	5084
653.049	5045
653.53	5036
654.012	5115
654.494	5049
654.976	5148
655.458	5129
655.94	5117
656.422	5190
656.904	5099
657.386	5041
657.868	5061
658.35	5068
658.833	5110
659.315	5109
659.797	5020
660.279	4985
660.762	5019
661.244	4952
661.726	4897
662.209	4887
662.691	4881
663.174	4788
663.656	4832
664.139	4826
664.621	4755
665.104	4711
665.587	4734
666.069	4768
666.552	4765
667.035	4701
667.517	4712
668	4766
668.483	4739
668.966	4704
669.449	4687
669.932	4703
670.415	4778
670.898	4746
671.381	4754
671.864	4767
672.347	4719
672.83	4750
673.313	4743
673.797	4716
674.28	4817
674.763	4828
675.247	4843
675.73	4805
676.213	4834
676.697	4862
677.18	4877
677.664	4886
678.147	4856
678.631	4889
679.114	4909
679.598	4892
680.082	4920
680.565	4882
681.049	4850
681.533	4840
682.017	4881
682.5	4876
682.984	4883
683.468	4875
683.952	4791
684.436	4875
684.92	4782
685.404	4795
685.888	4840
686.372	4798
686.856	4820
687.341	4868
687.825	4824
688.309	4869
688.793	4896
689.278	4811
689.762	4824
690.246	4799
690.731	4815
691.215	4863
691.7	4777
692.184	4838
692.669	4810
693.153	4811
693.638	4718
694.122	4709
694.607	4765
695.092	4706
695.577	4752
696.061	4659
696.546	4648
697.031	4606
697.516	4617
698.001	4591
698.486	4558
698.971	4579
699.456	4479
699.941	4498
700.426	4496
700.911	4561
701.396	4512
701.881	4516
702.366	4449
702.852	4409
703.337	4441
703.822	4453
704.308	4472
704.793	4511
705.278	4523
705.764	4540
706.249	4515
706.735	4504
707.22	4552
707.706	4514
708.191	4576
708.677	4562
709.163	4515
709.648	4533
710.134	4615
710.62	4566
711.106	4577
711.592	4638
712.077	4612
712.563	4505
713.049	4495
713.535	4593
714.021	4558
714.507	4520
714.993	4469
715.479	4497
715.966	4424
716.452	4421
716.938	4432
717.424	4272
717.91	4352
718.397	4311
718.883	4267
719.369	4271
719.856	4237
720.342	4328
720.829	4261
721.315	4289
721.802	4249
722.288	4283
722.775	4129
723.262	4037
723.748	4185
724.235	4165
724.722	4195
725.208	4105
725.695	4077
726.182	4084
726.669	4038
727.156	4065
727.643	4004
728.13	4003
728.617	3991
729.104	4015
729.591	3977
730.078	4024
730.565	4034
731.052	3989
731.539	3994
732.027	3956
732.514	3881
733.001	3914
733.488	3880
733.976	3899
734.463	3869
734.951	3847
735.438	3871
735.926	3822
736.413	3846
736.901	3824
737.388	3871
737.876	3838
738.364	3802
738.851	3809
739.339	3809
739.827	3848
740.314	3721
740.802	3735
741.29	3747
741.778	3702
742.266	3700
742.754	3700
743.242	3743
743.73	3686
744.218	3686
744.706	3649
745.194	3658
745.682	3603
746.17	3607
746.659	3618
747.147	3535
747.635	3551
748.123	3548
748.612	3501
749.1	3471
749.589	3521
750.077	3514
750.566	3510
751.054	3537
751.543	3549
752.031	3455
752.52	3450
753.008	3377
753.497	3387
753.986	3365
754.474	3339
754.963	3356
755.452	3301
755.941	3302
756.43	3302
756.919	3284
757.408	3240
757.896	3237
758.385	3239
758.875	3202
759.364	3185
759.853	3140
760.342	3096
760.831	3177
761.32	3137
761.809	3085
762.299	3096
762.788	3082
763.277	3069
763.767	3006
764.256	3006
764.745	2989
765.235	3054
765.724	2953
766.214	2989
766.703	2944
767.193	2877
767.683	2871
768.172	2836
768.662	2855
769.152	2836
769.641	2841
770.131	2771
770.621	2821
771.111	2780
771.601	2788
772.09	2774
772.58	2736
773.07	2748
773.56	2756
774.05	2700
774.54	2695
775.031	2682
775.521	2680
776.011	2683
776.501	2712
776.991	2641
777.482	2645
777.972	2577
778.462	2584
778.953	2601
779.443	2569
779.933	2558
780.424	2530
780.914	2555
781.405	2549
781.895	2534
782.386	2550
782.877	2523
783.367	2461
783.858	2445
784.349	2452
784.839	2440
785.33	2439
785.821	2410
786.312	2389
786.803	2396
787.293	2382
787.784	2339
788.275	2298
788.766	2257
789.257	2281
789.748	2243
790.24	2218
790.731	2228
791.222	2198
791.713	2192
792.204	2206
792.696	2159
793.187	2184
793.678	2165
794.169	2097
794.661	2120
795.152	2086
795.644	2074
796.135	2076
796.627	2092
797.118	2041
797.61	2019
798.101	1987
798.593	2017
799.085	1971
799.576	1987
800.068	1964
800.56	1979
801.052	1923
801.544	1933
802.035	1926
802.527	1894
803.019	1871
803.511	1857
804.003	1836
804.495	1851
804.987	1838
805.479	1800
805.971	1805
806.464	1811
806.956	1772
807.448	1770
807.94	1749
808.433	1743
808.925	1740
809.417	1716
809.91	1706
810.402	1647
810.894	1654
811.387	1663
811.879	1632
812.372	1649
812.865	1639
813.357	1627
813.85	1613
814.342	1603
814.835	1608
815.328	1597
815.821	1577
816.313	1574
816.806	1571
817.299	1559
817.792	1571
818.285	1543
818.778	1567
819.271	1572
819.764	1554
820.257	1556
820.75	1547
821.243	1550
821.736	1527
822.229	1542
822.722	1537
823.216	1574
