Data from lamp4bck_Subt4__3__65.txt Node

Date: Wed Apr 09 09:37:16 CEST 2025
User: fys-lab-0081
Spectrometer: S04999
Trigger mode: 0
Resolution mode: 1024 pixels
Integration Time (sec): 1.000000E-1
Scans to average: 1
Nonlinearity correction enabled: false
Boxcar width: 0
Baseline correction enabled: true
XAxis mode: Wavelengths
Number of Pixels in Spectrum: 1024
>>>>>Begin Spectral Data<<<<<
336.42	4
336.877	4
337.334	2
337.792	-1
338.249	7
338.706	2
339.164	4
339.621	1
340.079	4
340.536	10
340.994	11
341.452	-2
341.909	6
342.367	4
342.825	3
343.283	6
343.741	4
344.198	7
344.656	4
345.114	5
345.572	8
346.03	11
346.488	10
346.947	5
347.405	7
347.863	2
348.321	11
348.779	9
349.238	4
349.696	11
350.154	9
350.613	7
351.071	6
351.53	12
351.988	10
352.447	8
352.905	6
353.364	8
353.823	8
354.282	13
354.74	9
355.199	14
355.658	14
356.117	12
356.576	15
357.035	9
357.494	15
357.953	14
358.412	16
358.871	13
359.33	18
359.789	19
360.249	11
360.708	15
361.167	18
361.626	19
362.086	17
362.545	15
363.005	20
363.464	18
363.924	17
364.383	25
364.843	21
365.303	27
365.762	28
366.222	21
366.682	27
367.142	28
367.601	28
368.061	22
368.521	30
368.981	31
369.441	31
369.901	33
370.361	27
370.821	29
371.282	31
371.742	29
372.202	33
372.662	37
373.123	31
373.583	31
374.043	31
374.504	31
374.964	36
375.425	34
375.885	40
376.346	44
376.806	38
377.267	44
377.728	45
378.188	43
378.649	43
379.11	45
379.571	47
380.032	47
380.493	42
380.954	51
381.414	49
381.876	48
382.337	53
382.798	62
383.259	65
383.72	59
384.181	61
384.642	63
385.104	72
385.565	81
386.026	68
386.488	70
386.949	81
387.411	77
387.872	75
388.334	82
388.795	78
389.257	88
389.719	87
390.181	86
390.642	96
391.104	89
391.566	91
392.028	105
392.49	100
392.952	103
393.414	103
393.876	107
394.338	111
394.8	112
395.262	117
395.724	116
396.186	123
396.648	123
397.111	123
397.573	128
398.035	130
398.498	131
398.96	131
399.423	131
399.885	136
400.348	137
400.81	155
401.273	143
401.736	147
402.198	153
402.661	165
403.124	159
403.587	160
404.049	167
404.512	174
404.975	175
405.438	171
405.901	180
406.364	182
406.827	179
407.29	186
407.754	182
408.217	185
408.68	179
409.143	184
409.607	190
410.07	193
410.533	195
410.997	199
411.46	198
411.924	204
412.387	205
412.851	211
413.314	221
413.778	215
414.242	224
414.705	231
415.169	228
415.633	231
416.097	231
416.561	235
417.024	242
417.488	241
417.952	243
418.416	244
418.88	241
419.344	245
419.809	236
420.273	252
420.737	244
421.201	247
421.665	263
422.13	254
422.594	265
423.059	270
423.523	276
423.987	279
424.452	286
424.916	294
425.381	306
425.846	307
426.31	310
426.775	311
427.24	321
427.704	307
428.169	323
428.634	323
429.099	314
429.564	321
430.029	329
430.494	327
430.959	330
431.424	320
431.889	328
432.354	338
432.819	334
433.284	346
433.75	345
434.215	361
434.68	371
435.146	377
435.611	393
436.077	402
436.542	413
437.008	423
437.473	426
437.939	434
438.404	448
438.87	453
439.336	439
439.801	438
440.267	444
440.733	458
441.199	461
441.665	456
442.131	471
442.596	469
443.062	480
443.529	495
443.995	500
444.461	512
444.927	536
445.393	540
445.859	560
446.325	569
446.792	608
447.258	602
447.724	613
448.191	641
448.657	646
449.124	674
449.59	666
450.057	702
450.523	706
450.99	719
451.457	707
451.923	725
452.39	720
452.857	735
453.324	726
453.791	741
454.257	745
454.724	752
455.191	758
455.658	750
456.125	776
456.592	763
457.059	778
457.527	801
457.994	830
458.461	829
458.928	842
459.396	836
459.863	864
460.33	859
460.798	869
461.265	873
461.732	863
462.2	884
462.668	884
463.135	897
463.603	874
464.07	892
464.538	874
465.006	904
465.474	887
465.941	895
466.409	905
466.877	888
467.345	918
467.813	912
468.281	914
468.749	915
469.217	920
469.685	917
470.153	936
470.621	935
471.09	941
471.558	979
472.026	981
472.494	1007
472.963	1022
473.431	1058
473.9	1086
474.368	1109
474.837	1134
475.305	1151
475.774	1170
476.242	1195
476.711	1199
477.18	1229
477.648	1216
478.117	1229
478.586	1212
479.055	1218
479.524	1232
479.993	1229
480.462	1223
480.93	1227
481.399	1233
481.869	1245
482.338	1235
482.807	1256
483.276	1250
483.745	1251
484.214	1291
484.684	1299
485.153	1298
485.622	1294
486.092	1350
486.561	1322
487.031	1353
487.5	1379
487.97	1397
488.439	1427
488.909	1481
489.378	1527
489.848	1521
490.318	1568
490.787	1631
491.257	1665
491.727	1671
492.197	1715
492.667	1705
493.137	1736
493.607	1752
494.077	1752
494.547	1729
495.017	1729
495.487	1755
495.957	1775
496.427	1737
496.897	1752
497.368	1779
497.838	1762
498.308	1790
498.779	1798
499.249	1813
499.719	1825
500.19	1857
500.66	1871
501.131	1887
501.602	1937
502.072	1947
502.543	1965
503.014	2028
503.484	2021
503.955	2072
504.426	2141
504.897	2159
505.368	2189
505.838	2221
506.309	2279
506.78	2351
507.251	2382
507.722	2424
508.194	2494
508.665	2540
509.136	2528
509.607	2609
510.078	2657
510.549	2663
511.021	2723
511.492	2741
511.964	2785
512.435	2830
512.906	2800
513.378	2834
513.849	2882
514.321	2877
514.793	2908
515.264	2943
515.736	2953
516.208	2997
516.679	3021
517.151	3060
517.623	3085
518.095	3129
518.567	3154
519.038	3223
519.51	3215
519.982	3271
520.454	3334
520.927	3359
521.399	3401
521.871	3437
522.343	3473
522.815	3524
523.287	3506
523.76	3525
524.232	3566
524.704	3595
525.177	3532
525.649	3567
526.122	3611
526.594	3523
527.067	3606
527.539	3661
528.012	3632
528.484	3629
528.957	3653
529.43	3660
529.903	3646
530.375	3750
530.848	3663
531.321	3724
531.794	3734
532.267	3811
532.74	3767
533.213	3777
533.686	3832
534.159	3793
534.632	3861
535.105	3866
535.578	3948
536.051	3948
536.525	3959
536.998	3969
537.471	4067
537.945	3992
538.418	4053
538.891	4090
539.365	4145
539.838	4159
540.312	4170
540.786	4204
541.259	4177
541.733	4222
542.206	4236
542.68	4195
543.154	4196
543.628	4174
544.101	4302
544.575	4285
545.049	4201
545.523	4260
545.997	4228
546.471	4289
546.945	4245
547.419	4303
547.893	4140
548.367	4213
548.842	4202
549.316	4205
549.79	4220
550.264	4192
550.739	4263
551.213	4227
551.687	4236
552.162	4306
552.636	4284
553.111	4250
553.585	4352
554.06	4296
554.534	4393
555.009	4348
555.484	4408
555.958	4456
556.433	4490
556.908	4548
557.383	4488
557.858	4616
558.333	4653
558.807	4631
559.282	4620
559.757	4737
560.232	4777
560.708	4711
561.183	4692
561.658	4743
562.133	4734
562.608	4718
563.083	4834
563.559	4697
564.034	4747
564.509	4747
564.985	4775
565.46	4705
565.936	4763
566.411	4774
566.887	4723
567.362	4766
567.838	4752
568.313	4833
568.789	4782
569.265	4750
569.74	4777
570.216	4739
570.692	4858
571.168	4896
571.644	4869
572.12	4838
572.596	4867
573.071	4878
573.547	4977
574.024	4988
574.5	5028
574.976	5074
575.452	5157
575.928	5193
576.404	5216
576.881	5411
577.357	5339
577.833	5375
578.31	5462
578.786	5501
579.262	5640
579.739	5605
580.215	5731
580.692	5700
581.169	5678
581.645	5728
582.122	5896
582.598	5862
583.075	5829
583.552	5907
584.029	5934
584.506	5909
584.982	5852
585.459	5968
585.936	5904
586.413	5981
586.89	6037
587.367	5943
587.844	6045
588.321	6020
588.799	6035
589.276	5946
589.753	5990
590.23	6046
590.707	6032
591.185	6018
591.662	5994
592.139	6009
592.617	6140
593.094	6182
593.572	6218
594.049	6266
594.527	6274
595.004	6310
595.482	6524
595.96	6478
596.437	6474
596.915	6655
597.393	6620
597.871	6825
598.349	6703
598.826	6808
599.304	6832
599.782	6969
600.26	6884
600.738	6983
601.216	6907
601.694	6981
602.173	7040
602.651	7073
603.129	6973
603.607	7021
604.085	7061
604.564	7071
605.042	7057
605.52	7000
605.999	7173
606.477	7024
606.956	7044
607.434	7090.5
607.913	7137
608.391	7114
608.87	7154
609.348	7095
609.827	7144
610.306	7179
610.785	7159
611.263	7201
611.742	7215
612.221	7122
612.7	7202
613.179	7218
613.658	7151
614.137	7305
614.616	7345
615.095	7161
615.574	7212
616.053	7282
616.532	7275
617.011	7318
617.491	7331
617.97	7277
618.449	7319
618.928	7375
619.408	7302
619.887	7353
620.367	7372
620.846	7471
621.326	7435
621.805	7611
622.285	7577
622.764	7592
623.244	7547
623.724	7608
624.203	7672
624.683	7557
625.163	7744
625.643	7738
626.123	7712
626.602	7938
627.082	7778
627.562	7745
628.042	7924
628.522	7886
629.002	7860
629.482	7885
629.963	7882
630.443	7799
630.923	7825
631.403	7863
631.883	7809
632.364	7801
632.844	7723
633.324	7699
633.805	7711
634.285	7630
634.766	7596
635.246	7613
635.727	7569
636.207	7567
636.688	7590
637.168	7575
637.649	7520
638.13	7497
638.611	7572
639.091	7631
639.572	7619
640.053	7569
640.534	7592
641.015	7563
641.496	7439
641.977	7646
642.458	7629
642.939	7670
643.42	7703
643.901	7703
644.382	7753
644.863	7729
645.345	7733
645.826	7736
646.307	7707
646.788	7785
647.27	7663
647.751	7720
648.233	7827
648.714	7628
649.196	7798
649.677	7732
650.159	7731
650.64	7637
651.122	7758
651.603	7628
652.085	7664
652.567	7677
653.049	7606
653.53	7645
654.012	7732
654.494	7590
654.976	7653
655.458	7640
655.94	7646
656.422	7810
656.904	7749
657.386	7664
657.868	7656
658.35	7644
658.833	7730
659.315	7786
659.797	7682
660.279	7681
660.762	7783
661.244	7729
661.726	7607
662.209	7578
662.691	7533
663.174	7364
663.656	7417
664.139	7444
664.621	7387
665.104	7353
665.587	7395
666.069	7410
666.552	7361
667.035	7277
667.517	7307
668	7329
668.483	7285
668.966	7200
669.449	7178
669.932	7200
670.415	7264
670.898	7191
671.381	7190
671.864	7218
672.347	7174
672.83	7209
673.313	7279
673.797	7293
674.28	7398
674.763	7390
675.247	7412
675.73	7377
676.213	7460
676.697	7531
677.18	7546
677.664	7597
678.147	7633
678.631	7672
679.114	7737
679.598	7708
680.082	7714
680.565	7666
681.049	7641
681.533	7639
682.017	7783
682.5	7805
682.984	7847
683.468	7773
683.952	7583
684.436	7672
684.92	7548
685.404	7554
685.888	7565
686.372	7501
686.856	7517
687.341	7611
687.825	7521
688.309	7562
688.793	7589
689.278	7484
689.762	7589
690.246	7552
690.731	7581
691.215	7579
691.7	7372
692.184	7498
692.669	7517
693.153	7603
693.638	7504
694.122	7516
694.607	7586
695.092	7481
695.577	7581
696.061	7468
696.546	7496
697.031	7504
697.516	7580
698.001	7606
698.486	7573
698.971	7686
699.456	7511
699.941	7499
700.426	7466
700.911	7483
701.396	7372
701.881	7398
702.366	7347
702.852	7337
703.337	7378
703.822	7319
704.308	7265
704.793	7278
705.278	7288
705.764	7324
706.249	7274
706.735	7282
707.22	7380
707.706	7243
708.191	7354
708.677	7343
709.163	7305
709.648	7389
710.134	7463
710.62	7384
711.106	7399
711.592	7503
712.077	7507
712.563	7365
713.049	7377
713.535	7506
714.021	7443
714.507	7428
714.993	7356
715.479	7458
715.966	7378
716.452	7397
716.938	7419
717.424	7212
717.91	7357
718.397	7288
718.883	7231
719.369	7227
719.856	7166
720.342	7251
720.829	7127
721.315	7137
721.802	7123
722.288	7230
722.775	6985
723.262	6766
723.748	6993
724.235	6939
724.722	7043
725.208	6925
725.695	6945
726.182	6927
726.669	6832
727.156	6813
727.643	6679
728.13	6680
728.617	6641
729.104	6687
729.591	6668
730.078	6755
730.565	6801
731.052	6687
731.539	6714
732.027	6659
732.514	6585
733.001	6649
733.488	6632
733.976	6655
734.463	6654
734.951	6644
735.438	6751
735.926	6675
736.413	6748
736.901	6716
737.388	6803
737.876	6775
738.364	6711
738.851	6736
739.339	6681
739.827	6698
740.314	6492
740.802	6572
741.29	6619
741.778	6542
742.266	6529
742.754	6508
743.242	6549
743.73	6429
744.218	6421
744.706	6337
745.194	6368
745.682	6313
746.17	6329
746.659	6343
747.147	6175
747.635	6209
748.123	6226
748.612	6172
749.1	6157
749.589	6196
750.077	6131
750.566	6109
751.054	6145
751.543	6178
752.031	6078
752.52	6092
753.008	5970
753.497	5980
753.986	5981
754.474	5966
754.963	6027
755.452	5923
755.941	5906
756.43	5896
756.919	5870
757.408	5872
757.896	5910
758.385	5954
758.875	5872
759.364	5814
759.853	5776
760.342	5664
760.831	5774
761.32	5688
761.809	5593
762.299	5643
762.788	5649
763.277	5613
763.767	5506
764.256	5494
764.745	5431
765.235	5528
765.724	5384
766.214	5458
766.703	5413
767.193	5334
767.683	5357
768.172	5273
768.662	5342
769.152	5301
769.641	5307
770.131	5160
770.621	5216
771.111	5159
771.601	5161
772.09	5109
772.58	5050
773.07	5051
773.56	5098
774.05	4995
774.54	4966
775.031	4938
775.521	4930
776.011	4958
776.501	5044
776.991	4970
777.482	5011
777.972	4877
778.462	4876
778.953	4904
779.443	4876
779.933	4852
780.424	4794
780.914	4830
781.405	4848
781.895	4812
782.386	4821
782.877	4794
783.367	4703
783.858	4674
784.349	4688
784.839	4661
785.33	4670
785.821	4600
786.312	4539
786.803	4545
787.293	4549
787.784	4475
788.275	4436
788.766	4410
789.257	4494
789.748	4403
790.24	4355
790.731	4407
791.222	4333
791.713	4308
792.204	4296
792.696	4176
793.187	4230
793.678	4181
794.169	4073
794.661	4137
795.152	4098
795.644	4057
796.135	4049
796.627	4067
797.118	3996
797.61	3964
798.101	3914
798.593	3966
799.085	3913
799.576	3916
800.068	3858
800.56	3871
801.052	3793
801.544	3792
802.035	3805
802.527	3739
803.019	3695
803.511	3656
804.003	3643
804.495	3665
804.987	3628
805.479	3534
805.971	3564
806.464	3583
806.956	3515
807.448	3515
807.94	3537
808.433	3513
808.925	3484
809.417	3453
809.91	3441
810.402	3358
810.894	3403
811.387	3427
811.879	3374
812.372	3394
812.865	3354
813.357	3367
813.85	3340
814.342	3331
814.835	3328
815.328	3327
815.821	3280
816.313	3278
816.806	3276
817.299	3233
817.792	3261
818.285	3250
818.778	3293
819.271	3281
819.764	3224
820.257	3202
820.75	3186
821.243	3171
821.736	3133
822.229	3188
822.722	3192
823.216	3256
