Data from lamp4bck_Subt2__13__513.txt Node

Date: Wed Apr 09 11:16:17 CEST 2025
User: fys-lab-0081
Spectrometer: S04999
Trigger mode: 0
Resolution mode: 1024 pixels
Integration Time (sec): 1.000000E-1
Scans to average: 1
Nonlinearity correction enabled: false
Boxcar width: 0
Baseline correction enabled: true
XAxis mode: Wavelengths
Number of Pixels in Spectrum: 1024
>>>>>Begin Spectral Data<<<<<
336.42	1
336.877	5
337.334	3
337.792	0
338.249	5
338.706	6
339.164	2
339.621	4
340.079	2
340.536	4
340.994	2
341.452	6
341.909	5
342.367	1
342.825	3
343.283	5
343.741	2
344.198	6
344.656	1
345.114	3
345.572	6
346.03	2
346.488	-1
346.947	2
347.405	4
347.863	5
348.321	3
348.779	7
349.238	3
349.696	9
350.154	5
350.613	4
351.071	6
351.53	9
351.988	7
352.447	5
352.905	2
353.364	6
353.823	10
354.282	1
354.74	2
355.199	8
355.658	10
356.117	6
356.576	2
357.035	3
357.494	6
357.953	6
358.412	7
358.871	5
359.33	11
359.789	4
360.249	8
360.708	8
361.167	14
361.626	9
362.086	9
362.545	9
363.005	9
363.464	8
363.924	9
364.383	7
364.843	10
365.303	14
365.762	18
366.222	14
366.682	8
367.142	13
367.601	10
368.061	10
368.521	15
368.981	10
369.441	17
369.901	16
370.361	16
370.821	15
371.282	12
371.742	15
372.202	19
372.662	22
373.123	16
373.583	21
374.043	24
374.504	19
374.964	18
375.425	17
375.885	22
376.346	23
376.806	24
377.267	25
377.728	22
378.188	25
378.649	23
379.11	23
379.571	20
380.032	29
380.493	27
380.954	27
381.414	26
381.876	27
382.337	28
382.798	32
383.259	31
383.72	31
384.181	32
384.642	34
385.104	35
385.565	36
386.026	47
386.488	43
386.949	42
387.411	42
387.872	42
388.334	47
388.795	47
389.257	47
389.719	48
390.181	45
390.642	44
391.104	52
391.566	52
392.028	58
392.49	61
392.952	59
393.414	57
393.876	60
394.338	57
394.8	62
395.262	59
395.724	65
396.186	67
396.648	62
397.111	70
397.573	71
398.035	66
398.498	71
398.96	72
399.423	71
399.885	72
400.348	77
400.81	73
401.273	79
401.736	77
402.198	87
402.661	86
403.124	82
403.587	93
404.049	91.5
404.512	90
404.975	90
405.438	97
405.901	101
406.364	100
406.827	98
407.29	98
407.754	100
408.217	99
408.68	101
409.143	107
409.607	108
410.07	107
410.533	104
410.997	113
411.46	111
411.924	117
412.387	116
412.851	120
413.314	120
413.778	120
414.242	124
414.705	127
415.169	128
415.633	128
416.097	124
416.561	131
417.024	136
417.488	133
417.952	136
418.416	132
418.88	126
419.344	126
419.809	139
420.273	138
420.737	136
421.201	139
421.665	143
422.13	145
422.594	154
423.059	152
423.523	153
423.987	156
424.452	164
424.916	165
425.381	171
425.846	171
426.31	182
426.775	179
427.24	185
427.704	179
428.169	184
428.634	178
429.099	182
429.564	185
430.029	183
430.494	188
430.959	182
431.424	185
431.889	192
432.354	197
432.819	193
433.284	197
433.75	207
434.215	216
434.68	208
435.146	213
435.611	218
436.077	229
436.542	230
437.008	242
437.473	241
437.939	244
438.404	248
438.87	258
439.336	249
439.801	253
440.267	258
440.733	265
441.199	258
441.665	261
442.131	277
442.596	264
443.062	279
443.529	290
443.995	292
444.461	297
444.927	316
445.393	313
445.859	324
446.325	330
446.792	354
447.258	345
447.724	365
448.191	378
448.657	380
449.124	388
449.59	381
450.057	410
450.523	414
450.99	419
451.457	418
451.923	429
452.39	422
452.857	434
453.324	425
453.791	441
454.257	440
454.724	447
455.191	449
455.658	447
456.125	467
456.592	459
457.059	465
457.527	471
457.994	486
458.461	490
458.928	502
459.396	492
459.863	507
460.33	510
460.798	509
461.265	521
461.732	516
462.2	529
462.668	529
463.135	539
463.603	520
464.07	541
464.538	523
465.006	540
465.474	534
465.941	537
466.409	536
466.877	526
467.345	545
467.813	539
468.281	543
468.749	546
469.217	547
469.685	559
470.153	570
470.621	568
471.09	575
471.558	600
472.026	600
472.494	619
472.963	612
473.431	637
473.9	653
474.368	670
474.837	679
475.305	685
475.774	696
476.242	716
476.711	717
477.18	741
477.648	734
478.117	740
478.586	743
479.055	747
479.524	748
479.993	750
480.462	745
480.93	754
481.399	748
481.869	763
482.338	753
482.807	767
483.276	761
483.745	756
484.214	779
484.684	793
485.153	796
485.622	810
486.092	830
486.561	815
487.031	847
487.5	860
487.97	870
488.439	894
488.909	917
489.378	953
489.848	952
490.318	972
490.787	1015
491.257	1017
491.727	1017
492.197	1043
492.667	1046
493.137	1053
493.607	1061
494.077	1075
494.547	1063
495.017	1063
495.487	1076
495.957	1110
496.427	1084
496.897	1086
497.368	1104
497.838	1086
498.308	1104
498.779	1118
499.249	1125
499.719	1135
500.19	1148
500.66	1156
501.131	1166
501.602	1190
502.072	1187
502.543	1210
503.014	1259
503.484	1256
503.955	1287
504.426	1338
504.897	1353
505.368	1372
505.838	1402
506.309	1428
506.78	1480
507.251	1501
507.722	1530
508.194	1570
508.665	1603
509.136	1581
509.607	1642
510.078	1648
510.549	1654
511.021	1693
511.492	1701
511.964	1721
512.435	1754
512.906	1745
513.378	1762
513.849	1803
514.321	1797
514.793	1815
515.264	1847
515.736	1862
516.208	1909
516.679	1930
517.151	1937
517.623	1950
518.095	1989
518.567	1994
519.038	2036
519.51	2034
519.982	2056
520.454	2070
520.927	2100
521.399	2154
521.871	2165
522.343	2170
522.815	2197
523.287	2210
523.76	2234
524.232	2261
524.704	2273
525.177	2248
525.649	2246
526.122	2275
526.594	2237
527.067	2291
527.539	2320
528.012	2300
528.484	2298
528.957	2310
529.43	2306
529.903	2293
530.375	2363
530.848	2309
531.321	2353
531.794	2365
532.267	2420
532.74	2385
533.213	2371
533.686	2417
534.159	2413
534.632	2473
535.105	2495
535.578	2553
536.051	2561
536.525	2569
536.998	2552
537.471	2610
537.945	2570
538.418	2598
538.891	2595
539.365	2643
539.838	2670
540.312	2662
540.786	2670
541.259	2675
541.733	2725
542.206	2734
542.68	2695
543.154	2699
543.628	2719
544.101	2788
544.575	2738
545.049	2671
545.523	2726
545.997	2729
546.471	2750
546.945	2718
547.419	2755
547.893	2666
548.367	2721
548.842	2685
549.316	2709
549.79	2736
550.264	2715
550.739	2738
551.213	2734
551.687	2731
552.162	2769
552.636	2756
553.111	2753
553.585	2850
554.06	2817
554.534	2865
555.009	2848
555.484	2897
555.958	2925
556.433	2921
556.908	2970
557.383	2946
557.858	3022
558.333	3038
558.807	3031
559.282	3051
559.757	3131
560.232	3123
560.708	3072
561.183	3053
561.658	3112
562.133	3085
562.608	3055
563.083	3137
563.559	3084
564.034	3096
564.509	3107
564.985	3098
565.46	3058
565.936	3126
566.411	3129
566.887	3094
567.362	3130
567.838	3126
568.313	3166
568.789	3110
569.265	3100
569.74	3133
570.216	3117
570.692	3173
571.168	3166
571.644	3174
572.12	3188
572.596	3225
573.071	3226
573.547	3337
574.024	3372
574.5	3382
574.976	3394
575.452	3441
575.928	3465
576.404	3491
576.881	3600
577.357	3551
577.833	3564
578.31	3660
578.786	3690
579.262	3733
579.739	3681
580.215	3798
580.692	3806
581.169	3778
581.645	3794
582.122	3896
582.598	3899
583.075	3925
583.552	3952
584.029	3930
584.506	3879
584.982	3870
585.459	3962
585.936	3902
586.413	3950
586.89	4027
587.367	3972
587.844	4030
588.321	3986
588.799	4013
589.276	3991
589.753	4066
590.23	4070
590.707	4043
591.185	4061
591.662	4076
592.139	4115
592.617	4160
593.094	4140
593.572	4180
594.049	4248
594.527	4291
595.004	4294
595.482	4419
595.96	4429
596.437	4433
596.915	4520
597.393	4428
597.871	4532
598.349	4505
598.826	4608
599.304	4603
599.782	4688
600.26	4644
600.738	4749
601.216	4716
601.694	4741
602.173	4760
602.651	4777
603.129	4710
603.607	4744
604.085	4768
604.564	4784
605.042	4791
605.52	4749
605.999	4876
606.477	4739
606.956	4734
607.434	4794
607.913	4854
608.391	4828
608.87	4823
609.348	4742
609.827	4755
610.306	4794
610.785	4830
611.263	4843
611.742	4807
612.221	4747
612.7	4816
613.179	4825
613.658	4782
614.137	4854
614.616	4907
615.095	4812
615.574	4866
616.053	4891
616.532	4847
617.011	4875
617.491	4907
617.97	4883
618.449	4925
618.928	4942
619.408	4909
619.887	4984
620.367	4990
620.846	5059
621.326	5020
621.805	5136
622.285	5126
622.764	5161
623.244	5163
623.724	5185
624.203	5234
624.683	5187
625.163	5297
625.643	5296
626.123	5286
626.602	5397
627.082	5295
627.562	5278
628.042	5369
628.522	5287
629.002	5189
629.482	5253
629.963	5271
630.443	5248
630.923	5294
631.403	5302
631.883	5234
632.364	5269
632.844	5226
633.324	5279
633.805	5299
634.285	5213
634.766	5152
635.246	5156
635.727	5141
636.207	5146
636.688	5145
637.168	5144
637.649	5082
638.13	5038
638.611	5097
639.091	5123
639.572	5120
640.053	5125
640.534	5201
641.015	5199
641.496	5108
641.977	5184
642.458	5137
642.939	5149
643.42	5153
643.901	5158
644.382	5181
644.863	5145
645.345	5126
645.826	5120
646.307	5125
646.788	5194
647.27	5106
647.751	5094
648.233	5131
648.714	5006
649.196	5149
649.677	5114
650.159	5102
650.64	5059
651.122	5135
651.603	5053
652.085	5107
652.567	5119
653.049	5074
653.53	5068
654.012	5138
654.494	5078
654.976	5187
655.458	5168
655.94	5154
656.422	5232
656.904	5141
657.386	5079
657.868	5109
658.35	5104
658.833	5144
659.315	5150
659.797	5060
660.279	5018
660.762	5053
661.244	4995
661.726	4925
662.209	4925
662.691	4910
663.174	4834
663.656	4863
664.139	4860
664.621	4796
665.104	4742
665.587	4769
666.069	4799
666.552	4805
667.035	4733
667.517	4758
668	4799
668.483	4777
668.966	4745
669.449	4724
669.932	4735
670.415	4809
670.898	4774
671.381	4788
671.864	4807
672.347	4758
672.83	4776
673.313	4769
673.797	4757
674.28	4852
674.763	4878
675.247	4886
675.73	4840
676.213	4879
676.697	4890
677.18	4912
677.664	4915
678.147	4907
678.631	4931
679.114	4955
679.598	4929
680.082	4964
680.565	4911
681.049	4891
681.533	4887
682.017	4920
682.5	4911
682.984	4927
683.468	4914
683.952	4814
684.436	4910
684.92	4819
685.404	4827
685.888	4877
686.372	4838
686.856	4855
687.341	4913
687.825	4865
688.309	4903
688.793	4933
689.278	4842
689.762	4867
690.246	4836
690.731	4855
691.215	4899
691.7	4810
692.184	4878
692.669	4838
693.153	4837
693.638	4752
694.122	4751
694.607	4799
695.092	4741
695.577	4788
696.061	4691
696.546	4681
697.031	4638
697.516	4662
698.001	4643
698.486	4599
698.971	4617
699.456	4530
699.941	4540
700.426	4542
700.911	4588
701.396	4549
701.881	4555
702.366	4489
702.852	4447
703.337	4472
703.822	4487
704.308	4501
704.793	4538
705.278	4559
705.764	4578
706.249	4558
706.735	4539
707.22	4576
707.706	4534
708.191	4613
708.677	4609
709.163	4547
709.648	4568
710.134	4642
710.62	4602
711.106	4610
711.592	4671
712.077	4639
712.563	4542
713.049	4536
713.535	4631
714.021	4586
714.507	4560
714.993	4513
715.479	4535
715.966	4456
716.452	4460
716.938	4460
717.424	4311
717.91	4386
718.397	4345
718.883	4307
719.369	4316
719.856	4276
720.342	4361
720.829	4298
721.315	4337
721.802	4290
722.288	4325
722.775	4163
723.262	4059
723.748	4221
724.235	4189
724.722	4231
725.208	4140
725.695	4120
726.182	4120
726.669	4072
727.156	4096
727.643	4027
728.13	4036
728.617	4021
729.104	4053
729.591	4008
730.078	4052
730.565	4073
731.052	4018
731.539	4029
732.027	3982
732.514	3906
733.001	3943
733.488	3917
733.976	3922
734.463	3898
734.951	3881
735.438	3899
735.926	3849
736.413	3875
736.901	3868
737.388	3893
737.876	3868
738.364	3828
738.851	3844
739.339	3844
739.827	3880
740.314	3753
740.802	3767
741.29	3774
741.778	3732
742.266	3730
742.754	3744
743.242	3767
743.73	3711
744.218	3720
744.706	3674
745.194	3687
745.682	3632
746.17	3631
746.659	3646
747.147	3553
747.635	3586
748.123	3573
748.612	3520
749.1	3507
749.589	3545
750.077	3536
750.566	3545
751.054	3571
751.543	3572
752.031	3489
752.52	3479
753.008	3413
753.497	3416
753.986	3396
754.474	3364
754.963	3385
755.452	3331
755.941	3326
756.43	3339
756.919	3307
757.408	3251
757.896	3255
758.385	3263
758.875	3224
759.364	3208
759.853	3171
760.342	3123
760.831	3199
761.32	3162
761.809	3112
762.299	3119
762.788	3107
763.277	3083
763.767	3040
764.256	3041
764.745	3015
765.235	3078
765.724	2986
766.214	3015
766.703	2971
767.193	2899
767.683	2902
768.172	2856
768.662	2882
769.152	2863
769.641	2860
770.131	2801
770.621	2845
771.111	2809
771.601	2800
772.09	2788
772.58	2760
773.07	2764
773.56	2777
774.05	2719
774.54	2714
775.031	2700
775.521	2701
776.011	2708
776.501	2728
776.991	2655
777.482	2658
777.972	2598
778.462	2602
778.953	2613
779.443	2598
779.933	2576
780.424	2548
780.914	2574
781.405	2572
781.895	2564
782.386	2561
782.877	2544
783.367	2482
783.858	2465
784.349	2476
784.839	2451
785.33	2451
785.821	2437
786.312	2409
786.803	2408
787.293	2402
787.784	2356
788.275	2315
788.766	2280
789.257	2301
789.748	2268
790.24	2242
790.731	2253
791.222	2213
791.713	2210
792.204	2226
792.696	2175
793.187	2198
793.678	2186
794.169	2113
794.661	2143
795.152	2109
795.644	2092
796.135	2101
796.627	2111
797.118	2059
797.61	2030
798.101	2007
798.593	2031
799.085	1996
799.576	2006
800.068	1981
800.56	1992
801.052	1943
801.544	1948
802.035	1944
802.527	1916
803.019	1886
803.511	1863
804.003	1853
804.495	1862
804.987	1848
805.479	1805
805.971	1819
806.464	1830
806.956	1787
807.448	1776
807.94	1770
808.433	1760
808.925	1748
809.417	1731
809.91	1714
810.402	1666
810.894	1676
811.387	1679
811.879	1654
812.372	1672
812.865	1653
813.357	1642
813.85	1637
814.342	1618
814.835	1617
815.328	1614
815.821	1590
816.313	1593
816.806	1587
817.299	1571
817.792	1587
818.285	1554
818.778	1584
819.271	1582
819.764	1563
820.257	1566
820.75	1567
821.243	1565
821.736	1538
822.229	1556
822.722	1555
823.216	1586
