Data from lamp3bck_noballon_Subt4__6__347.txt Node

Date: Fri Apr 04 11:09:05 CEST 2025
User: fys-lab-0081
Spectrometer: S04999
Trigger mode: 0
Resolution mode: 1024 pixels
Integration Time (sec): 1.000000E-1
Scans to average: 1
Nonlinearity correction enabled: false
Boxcar width: 0
Baseline correction enabled: true
XAxis mode: Wavelengths
Number of Pixels in Spectrum: 1024
>>>>>Begin Spectral Data<<<<<
336.42	9
336.877	8
337.334	9
337.792	13
338.249	10
338.706	17
339.164	15
339.621	14
340.079	16
340.536	13
340.994	12
341.452	20
341.909	16
342.367	17
342.825	20
343.283	21
343.741	19
344.198	16
344.656	20
345.114	21
345.572	18
346.03	18
346.488	25
346.947	27
347.405	25
347.863	27
348.321	23
348.779	27
349.238	29
349.696	30
350.154	28
350.613	32
351.071	37
351.53	34
351.988	38
352.447	39
352.905	34
353.364	43
353.823	47
354.282	39
354.74	43
355.199	50
355.658	48
356.117	49
356.576	46
357.035	53
357.494	50
357.953	51
358.412	54
358.871	55
359.33	58
359.789	57
360.249	64
360.708	62
361.167	57
361.626	68
362.086	66
362.545	69
363.005	71
363.464	78
363.924	73
364.383	81
364.843	85
365.303	80
365.762	88
366.222	91
366.682	91
367.142	93
367.601	93
368.061	99
368.521	98
368.981	102
369.441	103
369.901	95
370.361	102
370.821	108
371.282	104
371.742	100
372.202	111
372.662	112
373.123	113
373.583	118
374.043	121
374.504	122
374.964	121
375.425	129
375.885	130
376.346	136
376.806	132
377.267	141
377.728	140
378.188	144
378.649	145
379.11	146
379.571	148
380.032	151
380.493	157
380.954	162
381.414	168
381.876	174
382.337	176
382.798	181
383.259	190
383.72	190
384.181	203
384.642	202
385.104	212
385.565	215
386.026	217
386.488	237
386.949	230
387.411	243
387.872	238
388.334	247
388.795	253
389.257	261
389.719	267
390.181	266
390.642	279
391.104	276
391.566	284
392.028	295
392.49	300
392.952	306
393.414	313
393.876	319
394.338	325
394.8	328
395.262	335
395.724	347
396.186	347
396.648	353
397.111	351
397.573	363
398.035	361
398.498	375
398.96	374
399.423	380
399.885	386
400.348	387
400.81	405
401.273	406
401.736	405
402.198	423
402.661	440
403.124	442
403.587	446
404.049	461.5
404.512	477
404.975	482
405.438	478
405.901	482
406.364	482
406.827	496
407.29	483
407.754	477
408.217	479
408.68	486
409.143	489
409.607	496
410.07	494
410.533	506
410.997	519
411.46	518
411.924	523
412.387	517
412.851	540
413.314	562
413.778	552
414.242	564
414.705	581
415.169	570
415.633	587
416.097	583
416.561	589
417.024	607
417.488	581
417.952	595
418.416	585
418.88	604
419.344	591
419.809	595
420.273	607
420.737	599
421.201	609
421.665	619
422.13	610
422.594	630
423.059	644
423.523	651
423.987	655
424.452	683
424.916	695
425.381	716
425.846	720
426.31	715
426.775	727
427.24	743
427.704	729
428.169	744
428.634	741
429.099	724
429.564	724
430.029	738
430.494	738
430.959	738
431.424	723
431.889	750
432.354	752
432.819	743
433.284	772
433.75	769
434.215	789
434.68	808
435.146	831
435.611	851
436.077	875
436.542	893
437.008	925
437.473	926
437.939	926
438.404	947
438.87	957
439.336	939
439.801	940
440.267	954
440.733	977
441.199	972
441.665	969
442.131	994
442.596	972
443.062	1008
443.529	1023
443.995	1034
444.461	1063
444.927	1102
445.393	1116
445.859	1158
446.325	1163
446.792	1229
447.258	1229
447.724	1247
448.191	1301
448.657	1314
449.124	1363
449.59	1350
450.057	1410
450.523	1428
450.99	1456
451.457	1447
451.923	1462
452.39	1434
452.857	1477
453.324	1477
453.791	1485
454.257	1495
454.724	1517
455.191	1514
455.658	1497
456.125	1562
456.592	1505
457.059	1545
457.527	1549
457.994	1592
458.461	1603
458.928	1631
459.396	1621
459.863	1680
460.33	1679
460.798	1680
461.265	1696
461.732	1683
462.2	1725
462.668	1706
463.135	1743
463.603	1689
464.07	1736
464.538	1676
465.006	1731
465.474	1682
465.941	1702
466.409	1709
466.877	1670
467.345	1723
467.813	1686
468.281	1694
468.749	1720
469.217	1718
469.685	1730
470.153	1744
470.621	1735
471.09	1747
471.558	1826
472.026	1797
472.494	1848
472.963	1866
473.431	1920
473.9	1942
474.368	1994
474.837	2040
475.305	2068
475.774	2101
476.242	2152
476.711	2161
477.18	2210
477.648	2169
478.117	2210
478.586	2185
479.055	2211
479.524	2236
479.993	2204
480.462	2197
480.93	2202
481.399	2208
481.869	2215
482.338	2173
482.807	2200
483.276	2191
483.745	2181
484.214	2239
484.684	2274
485.153	2260
485.622	2256
486.092	2323
486.561	2295
487.031	2370
487.5	2391
487.97	2381
488.439	2410
488.909	2458
489.378	2564
489.848	2573
490.318	2628
490.787	2736
491.257	2768
491.727	2825
492.197	2863
492.667	2833
493.137	2883
493.607	2895
494.077	2942
494.547	2914
495.017	2880
495.487	2922
495.957	2991
496.427	2909
496.897	2915
497.368	2949
497.838	2919
498.308	2961
498.779	2958
499.249	2961
499.719	2981
500.19	2987
500.66	3027
501.131	3054
501.602	3119
502.072	3111
502.543	3095
503.014	3210
503.484	3193
503.955	3271
504.426	3351
504.897	3323
505.368	3408
505.838	3497
506.309	3580
506.78	3678
507.251	3727
507.722	3801
508.194	3891
508.665	3908
509.136	3888
509.607	3992
510.078	4074
510.549	4143
511.021	4232
511.492	4213
511.964	4282
512.435	4295
512.906	4268
513.378	4305
513.849	4339
514.321	4361
514.793	4404
515.264	4451
515.736	4503
516.208	4593
516.679	4616
517.151	4651
517.623	4671
518.095	4714
518.567	4757
519.038	4852
519.51	4835
519.982	4915
520.454	4961
520.927	4966
521.399	5025
521.871	5106
522.343	5116
522.815	5158
523.287	5139
523.76	5179
524.232	5272
524.704	5327
525.177	5248
525.649	5227
526.122	5269
526.594	5157
527.067	5294
527.539	5321
528.012	5264
528.484	5255
528.957	5268
529.43	5237
529.903	5238
530.375	5403
530.848	5274
531.321	5366
531.794	5350
532.267	5451
532.74	5361
533.213	5296
533.686	5340
534.159	5326
534.632	5460
535.105	5464
535.578	5508
536.051	5565
536.525	5562
536.998	5519
537.471	5603
537.945	5553
538.418	5652
538.891	5674
539.365	5760
539.838	5797
540.312	5761
540.786	5835
541.259	5831
541.733	5882
542.206	5878
542.68	5788
543.154	5747
543.628	5725
544.101	5866
544.575	5832
545.049	5698
545.523	5820
545.997	5777
546.471	5818
546.945	5766
547.419	5863
547.893	5583
548.367	5657
548.842	5632
549.316	5622
549.79	5657
550.264	5632
550.739	5697
551.213	5704
551.687	5726
552.162	5719
552.636	5629
553.111	5617
553.585	5735
554.06	5631
554.534	5789
555.009	5735
555.484	5812
555.958	5894
556.433	5915
556.908	5965
557.383	5910
557.858	6041
558.333	6023
558.807	5923
559.282	5939
559.757	6104
560.232	6179
560.708	6081
561.183	6058
561.658	6113
562.133	6117
562.608	6065
563.083	6258
563.559	6080
564.034	6087
564.509	6066
564.985	6065
565.46	5988
565.936	6086
566.411	6108
566.887	6050
567.362	6098
567.838	6062
568.313	6122
568.789	6070
569.265	6097
569.74	6113
570.216	6040
570.692	6185
571.168	6170
571.644	6138
572.12	6084
572.596	6149
573.071	6113
573.547	6264
574.024	6276
574.5	6282
574.976	6298
575.452	6397
575.928	6380
576.404	6400
576.881	6609
577.357	6511
577.833	6559
578.31	6732
578.786	6791
579.262	6898
579.739	6780
580.215	6978
580.692	6994
581.169	6993
581.645	7012
582.122	7150
582.598	7107
583.075	7112
583.552	7226
584.029	7222
584.506	7189
584.982	7099
585.459	7230
585.936	7127
586.413	7235
586.89	7332
587.367	7214
587.844	7321
588.321	7243
588.799	7239
589.276	7183
589.753	7287
590.23	7292
590.707	7271
591.185	7295
591.662	7273
592.139	7301
592.617	7366
593.094	7378
593.572	7499
594.049	7548
594.527	7604
595.004	7605
595.482	7764
595.96	7675
596.437	7677
596.915	7841
597.393	7699
597.871	7867
598.349	7812
598.826	8009
599.304	7998
599.782	8137
600.26	8014
600.738	8109
601.216	8052
601.694	8135
602.173	8206
602.651	8250
603.129	8094
603.607	8139
604.085	8232
604.564	8232
605.042	8255
605.52	8190
605.999	8374
606.477	8204
606.956	8200
607.434	8177.5
607.913	8155
608.391	8163
608.87	8229
609.348	8175
609.827	8228
610.306	8259
610.785	8251
611.263	8253
611.742	8163
612.221	7948
612.7	8016
613.179	8051
613.658	7969
614.137	8170
614.616	8254
615.095	8083
615.574	8177
616.053	8275
616.532	8195
617.011	8144
617.491	8109
617.97	8081
618.449	8192
618.928	8278
619.408	8258
619.887	8356
620.367	8347
620.846	8377
621.326	8343
621.805	8559
622.285	8563
622.764	8595
623.244	8596
623.724	8653
624.203	8724
624.683	8522
625.163	8669
625.643	8668
626.123	8599
626.602	8763
627.082	8552
627.562	8566
628.042	8673
628.522	8604
629.002	8635
629.482	8688
629.963	8622
630.443	8478
630.923	8499
631.403	8555
631.883	8500
632.364	8570
632.844	8539
633.324	8514
633.805	8526
634.285	8427
634.766	8384
635.246	8380
635.727	8336
636.207	8380
636.688	8416
637.168	8457
637.649	8388
638.13	8372
638.611	8382
639.091	8351
639.572	8401
640.053	8374
640.534	8457
641.015	8415
641.496	8267
641.977	8370
642.458	8209
642.939	8163
643.42	8150
643.901	8189
644.382	8226
644.863	8214
645.345	8224
645.826	8134
646.307	8087
646.788	8295
647.27	8206
647.751	8280
648.233	8396
648.714	8237
649.196	8458
649.677	8397
650.159	8417
650.64	8322
651.122	8403
651.603	8246
652.085	8309
652.567	8258
653.049	8195
653.53	8201
654.012	8233
654.494	7980
654.976	7992
655.458	7952
655.94	8002
656.422	8171
656.904	8056
657.386	7944
657.868	7976
658.35	8048
658.833	8185
659.315	8142
659.797	8031
660.279	8062
660.762	8121
661.244	8019
661.726	7939
662.209	7926
662.691	7907
663.174	7784
663.656	7827
664.139	7851
664.621	7811
665.104	7758
665.587	7757
666.069	7730
666.552	7663
667.035	7567
667.517	7612
668	7686
668.483	7629
668.966	7532
669.449	7466
669.932	7534
670.415	7707
670.898	7652
671.381	7655
671.864	7673
672.347	7592
672.83	7593
673.313	7623
673.797	7565
674.28	7601
674.763	7556
675.247	7553
675.73	7571
676.213	7672
676.697	7733
677.18	7716
677.664	7735
678.147	7727
678.631	7748
679.114	7798
679.598	7849
680.082	7939
680.565	7958
681.049	7945
681.533	7943
682.017	8001
682.5	7951
682.984	7927
683.468	7859
683.952	7708
684.436	7870
684.92	7772
685.404	7804
685.888	7862
686.372	7782
686.856	7731
687.341	7824
687.825	7748
688.309	7771
688.793	7792
689.278	7765
689.762	7889
690.246	7834
690.731	7815
691.215	7773
691.7	7536
692.184	7593
692.669	7587
693.153	7627
693.638	7506
694.122	7516
694.607	7516
695.092	7355
695.577	7440
696.061	7328
696.546	7377
697.031	7376
697.516	7417
698.001	7387
698.486	7292
698.971	7399
699.456	7344
699.941	7364
700.426	7349
700.911	7406
701.396	7354
701.881	7345
702.366	7250
702.852	7196
703.337	7222
703.822	7190
704.308	7148
704.793	7150
705.278	7077
705.764	7099
706.249	7072
706.735	7083
707.22	7136
707.706	7019
708.191	7179
708.677	7210
709.163	7143
709.648	7159
710.134	7219
710.62	7112
711.106	7085
711.592	7145
712.077	7108
712.563	6917
713.049	6954
713.535	7121
714.021	7083
714.507	7024
714.993	6931
715.479	7044
715.966	6961
716.452	6945
716.938	6929
717.424	6735
717.91	6877
718.397	6778
718.883	6726
719.369	6773
719.856	6801
720.342	6883
720.829	6751
721.315	6706
721.802	6658
722.288	6686
722.775	6458
723.262	6288
723.748	6563
724.235	6499
724.722	6590
725.208	6471
725.695	6492
726.182	6471
726.669	6381
727.156	6395
727.643	6337
728.13	6343
728.617	6278
729.104	6253
729.591	6219
730.078	6256
730.565	6272
731.052	6208
731.539	6268
732.027	6193
732.514	6078
733.001	6120
733.488	6125
733.976	6165
734.463	6158
734.951	6137
735.438	6163
735.926	6043
736.413	6014
736.901	5899
737.388	5968
737.876	5911
738.364	5806
738.851	5809
739.339	5805
739.827	5848
740.314	5692
740.802	5754
741.29	5813
741.778	5761
742.266	5750
742.754	5775
743.242	5851
743.73	5752
744.218	5739
744.706	5639
745.194	5676
745.682	5634
746.17	5725
746.659	5799
747.147	5664
747.635	5679
748.123	5678
748.612	5606
749.1	5535
749.589	5533
750.077	5455
750.566	5379
751.054	5409
751.543	5420
752.031	5334
752.52	5335
753.008	5220
753.497	5196
753.986	5159
754.474	5129
754.963	5160
755.452	5111
755.941	5062
756.43	5019
756.919	4943
757.408	4871
757.896	4892
758.385	4939
758.875	4908
759.364	4866
759.853	4864
760.342	4802
760.831	4930
761.32	4911
761.809	4873
762.299	4886
762.788	4874
763.277	4848
763.767	4720
764.256	4678
764.745	4591
765.235	4679
765.724	4557
766.214	4604
766.703	4578
767.193	4496
767.683	4499
768.172	4407
768.662	4467
769.152	4483
769.641	4485
770.131	4338
770.621	4358
771.111	4270
771.601	4282
772.09	4250
772.58	4221
773.07	4255
773.56	4310
774.05	4211
774.54	4168
775.031	4112
775.521	4048
776.011	4055
776.501	4098
776.991	4062
777.482	4128
777.972	3979
778.462	3948
778.953	4011
779.443	4003
779.933	4031
780.424	3948
780.914	3956
781.405	3910
781.895	3840
782.386	3829
782.877	3791
783.367	3728
783.858	3742
784.349	3752
784.839	3727
785.33	3752
785.821	3721
786.312	3688
786.803	3682
787.293	3649
787.784	3574
788.275	3529
788.766	3488
789.257	3545
789.748	3452
790.24	3415
790.731	3438
791.222	3381
791.713	3375
792.204	3412
792.696	3364
793.187	3436
793.678	3420
794.169	3325
794.661	3346
795.152	3301
795.644	3259
796.135	3242
796.627	3236
797.118	3169
797.61	3170
798.101	3141
798.593	3172
799.085	3108
799.576	3098
800.068	3055
800.56	3075
801.052	2999
801.544	2992
802.035	3001
802.527	2966
803.019	2955
803.511	2952
804.003	2929
804.495	2929
804.987	2860
805.479	2789
805.971	2816
806.464	2831
806.956	2765
807.448	2765
807.94	2764
808.433	2740
808.925	2751
809.417	2757
809.91	2745
810.402	2680
810.894	2717
811.387	2716
811.879	2656
812.372	2637
812.865	2605
813.357	2609
813.85	2599
814.342	2564
814.835	2544
815.328	2526
815.821	2485
816.313	2473
816.806	2467
817.299	2470
817.792	2510
818.285	2501
818.778	2536
819.271	2517
819.764	2452
820.257	2444
820.75	2422
821.243	2407
821.736	2383
822.229	2415
822.722	2411
823.216	2474
