Data from lamp4helium_zwak_dubbel_Subt2__179__779.txt Node

Date: Wed Apr 09 12:16:37 CEST 2025
User: fys-lab-0081
Spectrometer: S04999
Trigger mode: 0
Resolution mode: 1024 pixels
Integration Time (sec): 1.000000E-1
Scans to average: 1
Nonlinearity correction enabled: false
Boxcar width: 0
Baseline correction enabled: true
XAxis mode: Wavelengths
Number of Pixels in Spectrum: 1024
>>>>>Begin Spectral Data<<<<<
336.42	1
336.877	3
337.334	2
337.792	4
338.249	3
338.706	6
339.164	3
339.621	4
340.079	4
340.536	3
340.994	3
341.452	4
341.909	5
342.367	6
342.825	-2
343.283	6
343.741	2
344.198	2
344.656	3
345.114	5
345.572	8
346.03	1
346.488	6
346.947	4
347.405	9
347.863	1
348.321	5
348.779	6
349.238	3
349.696	5
350.154	-1
350.613	3
351.071	3
351.53	9
351.988	6
352.447	4
352.905	-1
353.364	4
353.823	5
354.282	4
354.74	-1
355.199	4
355.658	3
356.117	0
356.576	5
357.035	1
357.494	5
357.953	2
358.412	6
358.871	6
359.33	5
359.789	2
360.249	6
360.708	5
361.167	7
361.626	5
362.086	6
362.545	6
363.005	4
363.464	10
363.924	5
364.383	8
364.843	9
365.303	10
365.762	6
366.222	6
366.682	5
367.142	7
367.601	9
368.061	10
368.521	7
368.981	5
369.441	14
369.901	11
370.361	7
370.821	5
371.282	11
371.742	5
372.202	6
372.662	11
373.123	7
373.583	9
374.043	17
374.504	10
374.964	8
375.425	15
375.885	7
376.346	11
376.806	12
377.267	13
377.728	13
378.188	15
378.649	13
379.11	14
379.571	7
380.032	17
380.493	11
380.954	17
381.414	14
381.876	17
382.337	14
382.798	18
383.259	17
383.72	14
384.181	11
384.642	22
385.104	19
385.565	20
386.026	21
386.488	21
386.949	23
387.411	22
387.872	24
388.334	27
388.795	27
389.257	22
389.719	23
390.181	27
390.642	25
391.104	28
391.566	31
392.028	28
392.49	37
392.952	33
393.414	32
393.876	35
394.338	33
394.8	33
395.262	28
395.724	35
396.186	36
396.648	30
397.111	37
397.573	44
398.035	36
398.498	35
398.96	42
399.423	40
399.885	36
400.348	40
400.81	43
401.273	39
401.736	41
402.198	48
402.661	48
403.124	41
403.587	49
404.049	48.5
404.512	48
404.975	48
405.438	47
405.901	53
406.364	51
406.827	51
407.29	48
407.754	50
408.217	52
408.68	55
409.143	54
409.607	58
410.07	57
410.533	53
410.997	61
411.46	56
411.924	63
412.387	61
412.851	59
413.314	59
413.778	66
414.242	66
414.705	70
415.169	67
415.633	68
416.097	67
416.561	71
417.024	66
417.488	71
417.952	73
418.416	69
418.88	64
419.344	65
419.809	70
420.273	72
420.737	69
421.201	76
421.665	74
422.13	72
422.594	79
423.059	79
423.523	83
423.987	76
424.452	88
424.916	83
425.381	88
425.846	85
426.31	96
426.775	96
427.24	96
427.704	92
428.169	93
428.634	95
429.099	96
429.564	97
430.029	95
430.494	94
430.959	97
431.424	95
431.889	103
432.354	103
432.819	94
433.284	103
433.75	101
434.215	109
434.68	106
435.146	108
435.611	115
436.077	114
436.542	115
437.008	126
437.473	125
437.939	124
438.404	130
438.87	129
439.336	134
439.801	138
440.267	134
440.733	135
441.199	138
441.665	138
442.131	142
442.596	133
443.062	144
443.529	154
443.995	154
444.461	146
444.927	155
445.393	154
445.859	163
446.325	165
446.792	175
447.258	177
447.724	185
448.191	192
448.657	190
449.124	190
449.59	190
450.057	203
450.523	206
450.99	212
451.457	209
451.923	215
452.39	216
452.857	220
453.324	217
453.791	223
454.257	228
454.724	226
455.191	221
455.658	224
456.125	232
456.592	229
457.059	235
457.527	232
457.994	242
458.461	240
458.928	249
459.396	251
459.863	260
460.33	253
460.798	263
461.265	271
461.732	263
462.2	273
462.668	271
463.135	273
463.603	265
464.07	280
464.538	265
465.006	275
465.474	267
465.941	272
466.409	273
466.877	268
467.345	275
467.813	271
468.281	273
468.749	279
469.217	277
469.685	287
470.153	294
470.621	287
471.09	290
471.558	299
472.026	298
472.494	308
472.963	311
473.431	318
473.9	324
474.368	336
474.837	335
475.305	344
475.774	346
476.242	361
476.711	364
477.18	374
477.648	367
478.117	381
478.586	378
479.055	375
479.524	381
479.993	380
480.462	381
480.93	379
481.399	378
481.869	383
482.338	370
482.807	382
483.276	380
483.745	381
484.214	389
484.684	395
485.153	389
485.622	399
486.092	404
486.561	397
487.031	406
487.5	417
487.97	418
488.439	431
488.909	443
489.378	457
489.848	461
490.318	473
490.787	496
491.257	498
491.727	509
492.197	522
492.667	513
493.137	521
493.607	530
494.077	534
494.547	523
495.017	528
495.487	539
495.957	550
496.427	539
496.897	539
497.368	551
497.838	541
498.308	546
498.779	547
499.249	551
499.719	554
500.19	566
500.66	561
501.131	567
501.602	579
502.072	580
502.543	589
503.014	607
503.484	607
503.955	616
504.426	631
504.897	638
505.368	653
505.838	667
506.309	675
506.78	705
507.251	720
507.722	724
508.194	754
508.665	764
509.136	763
509.607	785
510.078	803
510.549	806
511.021	829
511.492	829
511.964	844
512.435	846
512.906	843
513.378	854
513.849	869
514.321	862
514.793	865
515.264	889
515.736	895
516.208	899
516.679	907
517.151	929
517.623	932
518.095	942
518.567	954
519.038	973
519.51	979
519.982	990
520.454	1006
520.927	1021
521.399	1024
521.871	1030
522.343	1037
522.815	1058
523.287	1047
523.76	1061
524.232	1086
524.704	1089
525.177	1070
525.649	1081
526.122	1102
526.594	1083
527.067	1103
527.539	1105
528.012	1106
528.484	1102
528.957	1109
529.43	1119
529.903	1120
530.375	1138
530.848	1107
531.321	1124
531.794	1135
532.267	1148
532.74	1115
533.213	1130
533.686	1145
534.159	1139
534.632	1157
535.105	1166
535.578	1189
536.051	1188
536.525	1182
536.998	1190
537.471	1224
537.945	1204
538.418	1224
538.891	1239
539.365	1268
539.838	1274
540.312	1266
540.786	1278
541.259	1289
541.733	1298
542.206	1296
542.68	1278
543.154	1280
543.628	1278
544.101	1302
544.575	1309
545.049	1283
545.523	1307
545.997	1294
546.471	1308
546.945	1308
547.419	1320
547.893	1256
548.367	1290
548.842	1282
549.316	1287
549.79	1286
550.264	1284
550.739	1306
551.213	1303
551.687	1290
552.162	1307
552.636	1307
553.111	1294
553.585	1320
554.06	1296
554.534	1333
555.009	1319
555.484	1335
555.958	1335
556.433	1351
556.908	1372
557.383	1354
557.858	1380
558.333	1393
558.807	1390
559.282	1410
559.757	1437
560.232	1443
560.708	1424
561.183	1437
561.658	1441
562.133	1439
562.608	1431
563.083	1486
563.559	1441
564.034	1437
564.509	1457
564.985	1470
565.46	1455
565.936	1468
566.411	1464
566.887	1453
567.362	1477
567.838	1458
568.313	1466
568.789	1465
569.265	1465
569.74	1471
570.216	1444
570.692	1468
571.168	1475
571.644	1478
572.12	1461
572.596	1471
573.071	1465
573.547	1510
574.024	1526
574.5	1523
574.976	1531
575.452	1558
575.928	1580
576.404	1585
576.881	1621
577.357	1605
577.833	1626
578.31	1670
578.786	1675
579.262	1696
579.739	1694
580.215	1764
580.692	1753
581.169	1728
581.645	1740
582.122	1799
582.598	1797
583.075	1788
583.552	1809
584.029	1811
584.506	1809
584.982	1800
585.459	1825
585.936	1800
586.413	1835
586.89	1876
587.367	1849
587.844	1858
588.321	1847
588.799	1857
589.276	1842
589.753	1868
590.23	1868
590.707	1867
591.185	1877
591.662	1889
592.139	1885
592.617	1908
593.094	1906
593.572	1926
594.049	1935
594.527	1935
595.004	1925
595.482	1976
595.96	1989
596.437	1991
596.915	2025
597.393	1988
597.871	2044
598.349	2035
598.826	2072
599.304	2074
599.782	2118
600.26	2092
600.738	2142
601.216	2138
601.694	2142
602.173	2155
602.651	2194
603.129	2192
603.607	2218
604.085	2227
604.564	2215
605.042	2234
605.52	2241
605.999	2295
606.477	2232
606.956	2231
607.434	2253
607.913	2275
608.391	2267
608.87	2244
609.348	2204
609.827	2220
610.306	2242
610.785	2249
611.263	2249
611.742	2231
612.221	2206
612.7	2260
613.179	2272
613.658	2224
614.137	2249
614.616	2274
615.095	2242
615.574	2268
616.053	2272
616.532	2249
617.011	2271
617.491	2292
617.97	2296
618.449	2310
618.928	2326
619.408	2306
619.887	2334
620.367	2351
620.846	2363
621.326	2346
621.805	2380
622.285	2384
622.764	2409
623.244	2405
623.724	2405
624.203	2415
624.683	2374
625.163	2441
625.643	2438
626.123	2417
626.602	2459
627.082	2400
627.562	2424
628.042	2486
628.522	2467
629.002	2454
629.482	2461
629.963	2476
630.443	2471
630.923	2492
631.403	2507
631.883	2482
632.364	2484
632.844	2489
633.324	2510
633.805	2516
634.285	2475
634.766	2467
635.246	2488
635.727	2496
636.207	2498
636.688	2476
637.168	2460
637.649	2429
638.13	2422
638.611	2449
639.091	2438
639.572	2422
640.053	2386
640.534	2435
641.015	2443
641.496	2411
641.977	2440
642.458	2399
642.939	2397
643.42	2422
643.901	2440
644.382	2448
644.863	2449
645.345	2450
645.826	2453
646.307	2473
646.788	2513
647.27	2474
647.751	2480
648.233	2508
648.714	2445
649.196	2545
649.677	2532
650.159	2526
650.64	2489
651.122	2520
651.603	2489
652.085	2527
652.567	2539
653.049	2510
653.53	2495
654.012	2530
654.494	2492
654.976	2516
655.458	2502
655.94	2486
656.422	2520
656.904	2493
657.386	2490
657.868	2506
658.35	2491
658.833	2501
659.315	2493
659.797	2470
660.279	2472
660.762	2505
661.244	2480
661.726	2439
662.209	2434
662.691	2451
663.174	2406
663.656	2424
664.139	2418
664.621	2380
665.104	2368
665.587	2399
666.069	2417
666.552	2414
667.035	2385
667.517	2379
668	2385
668.483	2394
668.966	2384
669.449	2382
669.932	2393
670.415	2416
670.898	2398
671.381	2396
671.864	2410
672.347	2392
672.83	2410
673.313	2412
673.797	2387
674.28	2421
674.763	2418
675.247	2445
675.73	2432
676.213	2461
676.697	2472
677.18	2462
677.664	2474
678.147	2479
678.631	2495
679.114	2509
679.598	2492
680.082	2506
680.565	2511
681.049	2513
681.533	2531
682.017	2560
682.5	2551
682.984	2552
683.468	2558
683.952	2524
684.436	2584
684.92	2546
685.404	2543
685.888	2566
686.372	2553
686.856	2560
687.341	2615
687.825	2594
688.309	2619
688.793	2605
689.278	2568
689.762	2597
690.246	2601
690.731	2614
691.215	2617
691.7	2532
692.184	2547
692.669	2544
693.153	2558
693.638	2537
694.122	2551
694.607	2573
695.092	2530
695.577	2544
696.061	2509
696.546	2513
697.031	2508
697.516	2534
698.001	2517
698.486	2487
698.971	2521
699.456	2469
699.941	2486
700.426	2497
700.911	2512
701.396	2486
701.881	2494
702.366	2485
702.852	2495
703.337	2531
703.822	2538
704.308	2522
704.793	2522
705.278	2511
705.764	2526
706.249	2526
706.735	2544
707.22	2568
707.706	2525
708.191	2538
708.677	2531
709.163	2536
709.648	2572
710.134	2598
710.62	2572
711.106	2557
711.592	2587
712.077	2573
712.563	2528
713.049	2536
713.535	2587
714.021	2572
714.507	2549
714.993	2512
715.479	2540
715.966	2520
716.452	2548
716.938	2568
717.424	2501
717.91	2541
718.397	2502
718.883	2476
719.369	2486
719.856	2479
720.342	2517
720.829	2492
721.315	2491
721.802	2483
722.288	2510
722.775	2434
723.262	2380
723.748	2486
724.235	2464
724.722	2495
725.208	2417
725.695	2426
726.182	2418
726.669	2411
727.156	2441
727.643	2401
728.13	2399
728.617	2366
729.104	2368
729.591	2350
730.078	2388
730.565	2396
731.052	2360
731.539	2362
732.027	2338
732.514	2302
733.001	2329
733.488	2326
733.976	2335
734.463	2326
734.951	2304
735.438	2322
735.926	2288
736.413	2308
736.901	2306
737.388	2352
737.876	2346
738.364	2327
738.851	2333
739.339	2318
739.827	2345
740.314	2293
740.802	2326
741.29	2345
741.778	2319
742.266	2314
742.754	2301
743.242	2324
743.73	2285
744.218	2300
744.706	2295
745.194	2335
745.682	2314
746.17	2307
746.659	2292
747.147	2255
747.635	2285
748.123	2308
748.612	2310
749.1	2289
749.589	2287
750.077	2260
750.566	2243
751.054	2262
751.543	2291
752.031	2255
752.52	2265
753.008	2216
753.497	2203
753.986	2186
754.474	2158
754.963	2186
755.452	2168
755.941	2173
756.43	2158
756.919	2141
757.408	2110
757.896	2126
758.385	2125
758.875	2122
759.364	2124
759.853	2137
760.342	2102
760.831	2135
761.32	2104
761.809	2066
762.299	2091
762.788	2109
763.277	2113
763.767	2099
764.256	2105
764.745	2060
765.235	2087
765.724	2032
766.214	2075
766.703	2087
767.193	2073
767.683	2090
768.172	2043
768.662	2068
769.152	2056
769.641	2059
770.131	2028
770.621	2071
771.111	2062
771.601	2083
772.09	2058
772.58	2019
773.07	2007
773.56	2014
774.05	1983
774.54	1995
775.031	1998
775.521	1988
776.011	1982
776.501	1986
776.991	1938
777.482	1949
777.972	1914
778.462	1930
778.953	1960
779.443	1961
779.933	1943
780.424	1909
780.914	1913
781.405	1900
781.895	1893
782.386	1900
782.877	1907
783.367	1879
783.858	1872
784.349	1870
784.839	1837
785.33	1837
785.821	1824
786.312	1821
786.803	1841
787.293	1854
787.784	1836
788.275	1809
788.766	1788
789.257	1815
789.748	1778
790.24	1777
790.731	1811
791.222	1794
791.713	1808
792.204	1799
792.696	1748
793.187	1749
793.678	1740
794.169	1696
794.661	1752
795.152	1746
795.644	1738
796.135	1740
796.627	1739
797.118	1712
797.61	1696
798.101	1685
798.593	1723
799.085	1703
799.576	1726
800.068	1702
800.56	1695
801.052	1645
801.544	1624
802.035	1630
802.527	1622
803.019	1625
803.511	1632
804.003	1636
804.495	1646
804.987	1619
805.479	1576
805.971	1583
806.464	1593
806.956	1570
807.448	1575
807.94	1594
808.433	1591
808.925	1574
809.417	1544
809.91	1531
810.402	1492
810.894	1505
811.387	1526
811.879	1509
812.372	1512
812.865	1502
813.357	1491
813.85	1474
814.342	1458
814.835	1464
815.328	1475
815.821	1476
816.313	1494
816.806	1504
817.299	1495
817.792	1504
818.285	1488
818.778	1507
819.271	1509
819.764	1490
820.257	1501
820.75	1502
821.243	1514
821.736	1495
822.229	1503
822.722	1495
823.216	1530
