Data from lamp4helium_zwak_dubbel_Subt2__121__721.txt Node

Date: Wed Apr 09 12:16:30 CEST 2025
User: fys-lab-0081
Spectrometer: S04999
Trigger mode: 0
Resolution mode: 1024 pixels
Integration Time (sec): 1.000000E-1
Scans to average: 1
Nonlinearity correction enabled: false
Boxcar width: 0
Baseline correction enabled: true
XAxis mode: Wavelengths
Number of Pixels in Spectrum: 1024
>>>>>Begin Spectral Data<<<<<
336.42	1
336.877	3
337.334	4
337.792	2
338.249	5
338.706	4
339.164	1
339.621	0
340.079	7
340.536	6
340.994	3
341.452	2
341.909	6
342.367	4
342.825	0
343.283	4
343.741	-2
344.198	1
344.656	0
345.114	-1
345.572	5
346.03	-3
346.488	0
346.947	4
347.405	6
347.863	1
348.321	4
348.779	7
349.238	-2
349.696	3
350.154	1
350.613	2
351.071	4
351.53	5
351.988	4
352.447	2
352.905	1
353.364	4
353.823	4
354.282	3
354.74	-1
355.199	8
355.658	5
356.117	-1
356.576	8
357.035	-2
357.494	4
357.953	4
358.412	8
358.871	4
359.33	4
359.789	0
360.249	4
360.708	7
361.167	5
361.626	6
362.086	6
362.545	4
363.005	7
363.464	4
363.924	6
364.383	4
364.843	8
365.303	11
365.762	6
366.222	5
366.682	3
367.142	7
367.601	8
368.061	6
368.521	9
368.981	6
369.441	14
369.901	12
370.361	5
370.821	7
371.282	9
371.742	8
372.202	8
372.662	10
373.123	7
373.583	10
374.043	9
374.504	6
374.964	5
375.425	11
375.885	12
376.346	8
376.806	13
377.267	10
377.728	11
378.188	8
378.649	9
379.11	15
379.571	10
380.032	13
380.493	14
380.954	18
381.414	15
381.876	14
382.337	10
382.798	15
383.259	20
383.72	15
384.181	16
384.642	15
385.104	18
385.565	23
386.026	21
386.488	18
386.949	23
387.411	20
387.872	21
388.334	24
388.795	23
389.257	26
389.719	27
390.181	26
390.642	26
391.104	27
391.566	27
392.028	29
392.49	36
392.952	33
393.414	31
393.876	34
394.338	30
394.8	33
395.262	28
395.724	37
396.186	38
396.648	32
397.111	37
397.573	35
398.035	35
398.498	34
398.96	37
399.423	37
399.885	35
400.348	39
400.81	37
401.273	43
401.736	38
402.198	43
402.661	46
403.124	39
403.587	47
404.049	47
404.512	47
404.975	50
405.438	50
405.901	53
406.364	54
406.827	52
407.29	54
407.754	54
408.217	52
408.68	50
409.143	57
409.607	59
410.07	54
410.533	57
410.997	54
411.46	60
411.924	63
412.387	63
412.851	63
413.314	60
413.778	60
414.242	64
414.705	68
415.169	67
415.633	69
416.097	68
416.561	73
417.024	65
417.488	68
417.952	73
418.416	67
418.88	63
419.344	67
419.809	72
420.273	73
420.737	69
421.201	70
421.665	75
422.13	77
422.594	82
423.059	79
423.523	84
423.987	82
424.452	79
424.916	83
425.381	89
425.846	86
426.31	95
426.775	94
427.24	95
427.704	94
428.169	94
428.634	96
429.099	97
429.564	96
430.029	96
430.494	99
430.959	91
431.424	93
431.889	101
432.354	100
432.819	99
433.284	111
433.75	104
434.215	107
434.68	106
435.146	109
435.611	116
436.077	118
436.542	117
437.008	127
437.473	125
437.939	124
438.404	128
438.87	136
439.336	128
439.801	134
440.267	138
440.733	137
441.199	137
441.665	137
442.131	143
442.596	137
443.062	143
443.529	150
443.995	146
444.461	152
444.927	158
445.393	156
445.859	160
446.325	165
446.792	175
447.258	175
447.724	184
448.191	189
448.657	194
449.124	195
449.59	198
450.057	211
450.523	213
450.99	216
451.457	220
451.923	214
452.39	218
452.857	228
453.324	213
453.791	220
454.257	227
454.724	228
455.191	228
455.658	228
456.125	229
456.592	228
457.059	238
457.527	236
457.994	246
458.461	246
458.928	248
459.396	252
459.863	259
460.33	261
460.798	266
461.265	272
461.732	271
462.2	275
462.668	269
463.135	276
463.603	269
464.07	285
464.538	268
465.006	277
465.474	277
465.941	273
466.409	273
466.877	273
467.345	276
467.813	264
468.281	277
468.749	279
469.217	281
469.685	286
470.153	292
470.621	287
471.09	287
471.558	300
472.026	305
472.494	304
472.963	309
473.431	320
473.9	329
474.368	337
474.837	336
475.305	341
475.774	350
476.242	365
476.711	363
477.18	375
477.648	370
478.117	385
478.586	382
479.055	376
479.524	384
479.993	383
480.462	374
480.93	378
481.399	383
481.869	384
482.338	376
482.807	383
483.276	386
483.745	384
484.214	393
484.684	394
485.153	393
485.622	399
486.092	405
486.561	398
487.031	418
487.5	420
487.97	422
488.439	431
488.909	440
489.378	455
489.848	457
490.318	472
490.787	500
491.257	501
491.727	511
492.197	522
492.667	516
493.137	522
493.607	536
494.077	538
494.547	528
495.017	528
495.487	540
495.957	552
496.427	547
496.897	541
497.368	549
497.838	548
498.308	548
498.779	548
499.249	551
499.719	560
500.19	565
500.66	559
501.131	567
501.602	584
502.072	575
502.543	590
503.014	605
503.484	605
503.955	618
504.426	641
504.897	637
505.368	653
505.838	662
506.309	667
506.78	704
507.251	717
507.722	726
508.194	747
508.665	766
509.136	758
509.607	785
510.078	804
510.549	811
511.021	830
511.492	828
511.964	848
512.435	855
512.906	849
513.378	859
513.849	879
514.321	873
514.793	874
515.264	891
515.736	899
516.208	907
516.679	914
517.151	926
517.623	941
518.095	941
518.567	949
519.038	976
519.51	978
519.982	989
520.454	1011
520.927	1018
521.399	1026
521.871	1034
522.343	1046
522.815	1062
523.287	1053
523.76	1069
524.232	1090
524.704	1091
525.177	1074
525.649	1077
526.122	1110
526.594	1079
527.067	1097
527.539	1113
528.012	1117
528.484	1112
528.957	1113
529.43	1111
529.903	1120
530.375	1143
530.848	1107
531.321	1128
531.794	1141
532.267	1152
532.74	1125
533.213	1137
533.686	1145
534.159	1129
534.632	1158
535.105	1168
535.578	1189
536.051	1182
536.525	1184
536.998	1197
537.471	1222
537.945	1202
538.418	1212
538.891	1233
539.365	1257
539.838	1253
540.312	1261
540.786	1267
541.259	1274
541.733	1288
542.206	1282
542.68	1275
543.154	1282
543.628	1280
544.101	1308
544.575	1310
545.049	1285
545.523	1313
545.997	1292
546.471	1300
546.945	1311
547.419	1325
547.893	1262
548.367	1283
548.842	1282
549.316	1280
549.79	1287
550.264	1288
550.739	1299
551.213	1301
551.687	1282
552.162	1300
552.636	1299
553.111	1300
553.585	1321
554.06	1303
554.534	1344
555.009	1326
555.484	1347
555.958	1351
556.433	1358
556.908	1387
557.383	1363
557.858	1392
558.333	1399
558.807	1389
559.282	1409
559.757	1439
560.232	1442
560.708	1418
561.183	1422
561.658	1431
562.133	1434
562.608	1420
563.083	1470
563.559	1432
564.034	1439
564.509	1450
564.985	1469
565.46	1459
565.936	1462
566.411	1459
566.887	1453
567.362	1466
567.838	1460
568.313	1466
568.789	1461
569.265	1477
569.74	1478
570.216	1452
570.692	1475
571.168	1480
571.644	1482
572.12	1461
572.596	1460
573.071	1467
573.547	1504
574.024	1526
574.5	1512
574.976	1523
575.452	1547
575.928	1571
576.404	1569
576.881	1612
577.357	1597
577.833	1625
578.31	1668
578.786	1678
579.262	1712
579.739	1713
580.215	1769
580.692	1774
581.169	1744
581.645	1763
582.122	1826
582.598	1815
583.075	1809
583.552	1821
584.029	1817
584.506	1817
584.982	1804
585.459	1830
585.936	1790
586.413	1824
586.89	1869
587.367	1837
587.844	1844
588.321	1825
588.799	1840
589.276	1827
589.753	1848
590.23	1850
590.707	1847
591.185	1861
591.662	1871
592.139	1881
592.617	1908
593.094	1909
593.572	1930
594.049	1947
594.527	1949
595.004	1939
595.482	1992
595.96	2005
596.437	2007
596.915	2040
597.393	2012
597.871	2067
598.349	2050
598.826	2082
599.304	2071
599.782	2113
600.26	2082
600.738	2125
601.216	2113
601.694	2119
602.173	2133
602.651	2170
603.129	2172
603.607	2187
604.085	2190
604.564	2188
605.042	2211
605.52	2222
605.999	2265
606.477	2214
606.956	2217
607.434	2247
607.913	2277
608.391	2271
608.87	2251
609.348	2212
609.827	2237
610.306	2255
610.785	2252
611.263	2247
611.742	2233
612.221	2210
612.7	2253
613.179	2274
613.658	2229
614.137	2241
614.616	2261
615.095	2228
615.574	2244
616.053	2241
616.532	2212
617.011	2236
617.491	2249
617.97	2253
618.449	2275
618.928	2289
619.408	2287
619.887	2311
620.367	2330
620.846	2358
621.326	2339
621.805	2377
622.285	2378
622.764	2420
623.244	2418
623.724	2424
624.203	2420
624.683	2390
625.163	2468
625.643	2464
626.123	2441
626.602	2478
627.082	2407
627.562	2433
628.042	2507
628.522	2480
629.002	2466
629.482	2470
629.963	2495
630.443	2485
630.923	2489
631.403	2493
631.883	2474
632.364	2487
632.844	2475
633.324	2486
633.805	2489
634.285	2454
634.766	2432
635.246	2464
635.727	2484
636.207	2473
636.688	2470
637.168	2460
637.649	2436
638.13	2427
638.611	2455
639.091	2461
639.572	2442
640.053	2416
640.534	2456
641.015	2468
641.496	2424
641.977	2470
642.458	2417
642.939	2422
643.42	2437
643.901	2452
644.382	2462
644.863	2455
645.345	2443
645.826	2449
646.307	2465
646.788	2507
647.27	2455
647.751	2462
648.233	2483
648.714	2428
649.196	2505
649.677	2492
650.159	2493
650.64	2455
651.122	2489
651.603	2450
652.085	2494
652.567	2516
653.049	2479
653.53	2457
654.012	2491
654.494	2461
654.976	2496
655.458	2499
655.94	2485
656.422	2537
656.904	2519
657.386	2510
657.868	2520
658.35	2513
658.833	2522
659.315	2517
659.797	2499
660.279	2506
660.762	2543
661.244	2510
661.726	2472
662.209	2459
662.691	2468
663.174	2412
663.656	2424
664.139	2417
664.621	2382
665.104	2351
665.587	2387
666.069	2400
666.552	2391
667.035	2360
667.517	2361
668	2367
668.483	2370
668.966	2359
669.449	2365
669.932	2376
670.415	2413
670.898	2395
671.381	2402
671.864	2420
672.347	2412
672.83	2432
673.313	2440
673.797	2419
674.28	2444
674.763	2446
675.247	2461
675.73	2456
676.213	2484
676.697	2495
677.18	2494
677.664	2507
678.147	2509
678.631	2528
679.114	2538
679.598	2528
680.082	2535
680.565	2537
681.049	2535
681.533	2552
682.017	2582
682.5	2566
682.984	2558
683.468	2548
683.952	2516
684.436	2565
684.92	2528
685.404	2536
685.888	2558
686.372	2540
686.856	2546
687.341	2604
687.825	2590
688.309	2618
688.793	2614
689.278	2571
689.762	2601
690.246	2604
690.731	2613
691.215	2626
691.7	2544
692.184	2562
692.669	2565
693.153	2583
693.638	2565
694.122	2585
694.607	2604
695.092	2561
695.577	2581
696.061	2543
696.546	2556
697.031	2548
697.516	2570
698.001	2551
698.486	2516
698.971	2541
699.456	2493
699.941	2517
700.426	2520
700.911	2539
701.396	2505
701.881	2518
702.366	2508
702.852	2509
703.337	2541
703.822	2536
704.308	2523
704.793	2518
705.278	2510
705.764	2523
706.249	2525
706.735	2543
707.22	2574
707.706	2526
708.191	2560
708.677	2557
709.163	2544
709.648	2589
710.134	2627
710.62	2587
711.106	2580
711.592	2603
712.077	2606
712.563	2542
713.049	2565
713.535	2623
714.021	2602
714.507	2576
714.993	2543
715.479	2579
715.966	2560
716.452	2577
716.938	2591
717.424	2520
717.91	2568
718.397	2521
718.883	2498
719.369	2500
719.856	2480
720.342	2519
720.829	2495
721.315	2500
721.802	2488
722.288	2512
722.775	2434
723.262	2388
723.748	2496
724.235	2470
724.722	2486
725.208	2415
725.695	2420
726.182	2416
726.669	2406
727.156	2431
727.643	2396
728.13	2394
728.617	2370
729.104	2364
729.591	2343
730.078	2387
730.565	2393
731.052	2358
731.539	2357
732.027	2341
732.514	2314
733.001	2357
733.488	2358
733.976	2359
734.463	2368
734.951	2346
735.438	2366
735.926	2332
736.413	2353
736.901	2350
737.388	2398
737.876	2395
738.364	2375
738.851	2359
739.339	2354
739.827	2378
740.314	2320
740.802	2352
741.29	2382
741.778	2348
742.266	2335
742.754	2326
743.242	2333
743.73	2290
744.218	2291
744.706	2280
745.194	2319
745.682	2297
746.17	2306
746.659	2282
747.147	2239
747.635	2279
748.123	2292
748.612	2288
749.1	2261
749.589	2268
750.077	2246
750.566	2230
751.054	2258
751.543	2283
752.031	2245
752.52	2253
753.008	2197
753.497	2185
753.986	2181
754.474	2163
754.963	2182
755.452	2165
755.941	2180
756.43	2178
756.919	2175
757.408	2143
757.896	2157
758.385	2162
758.875	2156
759.364	2159
759.853	2161
760.342	2129
760.831	2177
761.32	2156
761.809	2118
762.299	2135
762.788	2156
763.277	2162
763.767	2134
764.256	2136
764.745	2089
765.235	2102
765.724	2054
766.214	2089
766.703	2101
767.193	2089
767.683	2102
768.172	2053
768.662	2058
769.152	2045
769.641	2052
770.131	2013
770.621	2056
771.111	2045
771.601	2059
772.09	2041
772.58	1997
773.07	1990
773.56	2002
774.05	1970
774.54	1984
775.031	1988
775.521	1986
776.011	1976
776.501	1990
776.991	1946
777.482	1962
777.972	1923
778.462	1941
778.953	1979
779.443	1977
779.933	1965
780.424	1932
780.914	1928
781.405	1928
781.895	1921
782.386	1937
782.877	1934
783.367	1912
783.858	1896
784.349	1897
784.839	1870
785.33	1867
785.821	1854
786.312	1853
786.803	1871
787.293	1877
787.784	1864
788.275	1836
788.766	1805
789.257	1831
789.748	1795
790.24	1788
790.731	1809
791.222	1795
791.713	1796
792.204	1800
792.696	1743
793.187	1763
793.678	1747
794.169	1710
794.661	1759
795.152	1750
795.644	1756
796.135	1754
796.627	1750
797.118	1724
797.61	1705
798.101	1691
798.593	1737
799.085	1707
799.576	1728
800.068	1714
800.56	1705
801.052	1643
801.544	1641
802.035	1633
802.527	1628
803.019	1637
803.511	1642
804.003	1644
804.495	1653
804.987	1632
805.479	1586
805.971	1596
806.464	1606
806.956	1578
807.448	1586
807.94	1594
808.433	1596
808.925	1584
809.417	1557
809.91	1549
810.402	1508
810.894	1530
811.387	1548
811.879	1529
812.372	1541
812.865	1529
813.357	1506
813.85	1489
814.342	1473
814.835	1478
815.328	1492
815.821	1490
816.313	1500
816.806	1515
817.299	1506
817.792	1521
818.285	1491
818.778	1507
819.271	1509
819.764	1491
820.257	1502
820.75	1503
821.243	1513
821.736	1499
822.229	1508
822.722	1500
823.216	1532
