Data from lamp4helium_zwak_dubbel_Subt2__159__759.txt Node

Date: Wed Apr 09 12:16:35 CEST 2025
User: fys-lab-0081
Spectrometer: S04999
Trigger mode: 0
Resolution mode: 1024 pixels
Integration Time (sec): 1.000000E-1
Scans to average: 1
Nonlinearity correction enabled: false
Boxcar width: 0
Baseline correction enabled: true
XAxis mode: Wavelengths
Number of Pixels in Spectrum: 1024
>>>>>Begin Spectral Data<<<<<
336.42	0
336.877	4
337.334	0
337.792	0
338.249	1
338.706	5
339.164	2
339.621	5
340.079	3
340.536	5
340.994	3
341.452	4
341.909	11
342.367	1
342.825	-1
343.283	6
343.741	3
344.198	2
344.656	-1
345.114	1
345.572	3
346.03	5
346.488	3
346.947	3
347.405	7
347.863	1
348.321	0
348.779	8
349.238	2
349.696	5
350.154	3
350.613	-1
351.071	2
351.53	3
351.988	5
352.447	5
352.905	-2
353.364	4
353.823	4
354.282	2
354.74	-1
355.199	3
355.658	4
356.117	5
356.576	1
357.035	0
357.494	3
357.953	2
358.412	5
358.871	3
359.33	5
359.789	-1
360.249	5
360.708	3
361.167	4
361.626	9
362.086	4
362.545	2
363.005	6
363.464	4
363.924	7
364.383	1
364.843	9
365.303	10
365.762	11
366.222	4
366.682	4
367.142	7
367.601	7
368.061	5
368.521	5
368.981	3
369.441	14
369.901	8
370.361	9
370.821	5
371.282	6
371.742	6
372.202	11
372.662	8
373.123	5
373.583	8
374.043	15
374.504	8
374.964	4
375.425	7
375.885	11
376.346	13
376.806	14
377.267	12
377.728	14
378.188	10
378.649	11
379.11	13
379.571	7
380.032	18
380.493	16
380.954	19
381.414	11
381.876	14
382.337	11
382.798	17
383.259	16
383.72	16
384.181	10
384.642	12
385.104	17
385.565	22
386.026	18
386.488	17
386.949	17
387.411	25
387.872	25
388.334	26
388.795	24
389.257	29
389.719	22
390.181	25
390.642	26
391.104	22
391.566	30
392.028	27
392.49	34
392.952	31
393.414	30
393.876	34
394.338	30
394.8	31
395.262	25
395.724	36
396.186	36
396.648	36
397.111	36
397.573	37
398.035	35
398.498	37
398.96	42
399.423	32
399.885	37
400.348	40
400.81	37
401.273	39
401.736	36
402.198	47
402.661	50
403.124	38
403.587	51
404.049	47.5
404.512	44
404.975	47
405.438	49
405.901	54
406.364	49
406.827	50
407.29	50
407.754	53
408.217	50
408.68	50
409.143	55
409.607	58
410.07	54
410.533	54
410.997	54
411.46	56
411.924	64
412.387	62
412.851	59
413.314	57
413.778	58
414.242	64
414.705	68
415.169	68
415.633	65
416.097	67
416.561	67
417.024	69
417.488	67
417.952	71
418.416	65
418.88	65
419.344	61
419.809	68
420.273	73
420.737	68
421.201	74
421.665	73
422.13	74
422.594	78
423.059	77
423.523	79
423.987	78
424.452	83
424.916	85
425.381	86
425.846	85
426.31	96
426.775	92
427.24	95
427.704	88
428.169	92
428.634	95
429.099	93
429.564	94
430.029	92
430.494	92
430.959	94
431.424	94
431.889	98
432.354	101
432.819	97
433.284	108
433.75	100
434.215	104
434.68	106
435.146	104
435.611	110
436.077	116
436.542	116
437.008	124
437.473	125
437.939	123
438.404	128
438.87	131
439.336	132
439.801	130
440.267	133
440.733	137
441.199	136
441.665	139
442.131	144
442.596	132
443.062	139
443.529	147
443.995	150
444.461	150
444.927	153
445.393	152
445.859	158
446.325	164
446.792	173
447.258	173
447.724	178
448.191	189
448.657	189
449.124	189
449.59	188
450.057	207
450.523	208
450.99	211
451.457	208
451.923	211
452.39	217
452.857	219
453.324	213
453.791	218
454.257	225
454.724	224
455.191	223
455.658	219
456.125	231
456.592	229
457.059	231
457.527	231
457.994	245
458.461	246
458.928	247
459.396	246
459.863	253
460.33	252
460.798	256
461.265	262
461.732	264
462.2	269
462.668	266
463.135	266
463.603	266
464.07	279
464.538	267
465.006	274
465.474	271
465.941	268
466.409	268
466.877	266
467.345	270
467.813	268
468.281	270
468.749	274
469.217	272
469.685	279
470.153	286
470.621	284
471.09	285
471.558	299
472.026	296
472.494	306
472.963	303
473.431	312
473.9	324
474.368	333
474.837	329
475.305	341
475.774	341
476.242	351
476.711	358
477.18	368
477.648	365
478.117	375
478.586	375
479.055	364
479.524	377
479.993	374
480.462	373
480.93	372
481.399	371
481.869	376
482.338	369
482.807	380
483.276	371
483.745	372
484.214	383
484.684	388
485.153	388
485.622	393
486.092	398
486.561	390
487.031	408
487.5	408
487.97	411
488.439	425
488.909	433
489.378	450
489.848	451
490.318	468
490.787	493
491.257	497
491.727	501
492.197	511
492.667	507
493.137	512
493.607	525
494.077	526
494.547	520
495.017	519
495.487	533
495.957	542
496.427	532
496.897	528
497.368	541
497.838	530
498.308	534
498.779	538
499.249	544
499.719	543
500.19	555
500.66	556
501.131	559
501.602	568
502.072	569
502.543	582
503.014	597
503.484	595
503.955	603
504.426	627
504.897	631
505.368	646
505.838	652
506.309	664
506.78	688
507.251	709
507.722	718
508.194	739
508.665	753
509.136	746
509.607	776
510.078	786
510.549	796
511.021	816
511.492	814
511.964	835
512.435	838
512.906	834
513.378	848
513.849	866
514.321	853
514.793	865
515.264	878
515.736	882
516.208	888
516.679	898
517.151	916
517.623	922
518.095	928
518.567	940
519.038	962
519.51	963
519.982	967
520.454	985
520.927	996
521.399	999
521.871	1009
522.343	1023
522.815	1042
523.287	1028
523.76	1042
524.232	1071
524.704	1076
525.177	1054
525.649	1061
526.122	1092
526.594	1059
527.067	1079
527.539	1094
528.012	1091
528.484	1081
528.957	1090
529.43	1097
529.903	1094
530.375	1126
530.848	1092
531.321	1114
531.794	1120
532.267	1136
532.74	1101
533.213	1114
533.686	1137
534.159	1119
534.632	1138
535.105	1144
535.578	1165
536.051	1163
536.525	1159
536.998	1170
537.471	1204
537.945	1181
538.418	1191
538.891	1210
539.365	1240
539.838	1232
540.312	1236
540.786	1244
541.259	1252
541.733	1268
542.206	1263
542.68	1247
543.154	1261
543.628	1260
544.101	1291
544.575	1291
545.049	1272
545.523	1298
545.997	1287
546.471	1295
546.945	1286
547.419	1312
547.893	1249
548.367	1278
548.842	1269
549.316	1274
549.79	1275
550.264	1274
550.739	1289
551.213	1285
551.687	1272
552.162	1281
552.636	1284
553.111	1282
553.585	1303
554.06	1285
554.534	1320
555.009	1307
555.484	1322
555.958	1319
556.433	1336
556.908	1359
557.383	1341
557.858	1367
558.333	1378
558.807	1375
559.282	1396
559.757	1429
560.232	1432
560.708	1416
561.183	1413
561.658	1421
562.133	1415
562.608	1413
563.083	1459
563.559	1420
564.034	1423
564.509	1429
564.985	1449
565.46	1441
565.936	1449
566.411	1447
566.887	1441
567.362	1453
567.838	1443
568.313	1460
568.789	1441
569.265	1461
569.74	1466
570.216	1445
570.692	1464
571.168	1469
571.644	1476
572.12	1458
572.596	1455
573.071	1452
573.547	1496
574.024	1513
574.5	1502
574.976	1509
575.452	1544
575.928	1559
576.404	1560
576.881	1609
577.357	1584
577.833	1610
578.31	1652
578.786	1662
579.262	1688
579.739	1692
580.215	1751
580.692	1742
581.169	1721
581.645	1730
582.122	1783
582.598	1790
583.075	1782
583.552	1791
584.029	1798
584.506	1810
584.982	1790
585.459	1814
585.936	1780
586.413	1814
586.89	1863
587.367	1827
587.844	1836
588.321	1823
588.799	1839
589.276	1826
589.753	1839
590.23	1838
590.707	1839
591.185	1849
591.662	1847
592.139	1868
592.617	1884
593.094	1883
593.572	1901
594.049	1916
594.527	1919
595.004	1915
595.482	1971
595.96	1975
596.437	1982
596.915	2016
597.393	1994
597.871	2048
598.349	2030
598.826	2072
599.304	2067
599.782	2106
600.26	2070
600.738	2122
601.216	2107
601.694	2111
602.173	2130
602.651	2168
603.129	2171
603.607	2181
604.085	2190
604.564	2190
605.042	2208
605.52	2213
605.999	2260
606.477	2213
606.956	2219
607.434	2245
607.913	2271
608.391	2260
608.87	2242
609.348	2208
609.827	2230
610.306	2255
610.785	2263
611.263	2249
611.742	2235
612.221	2219
612.7	2253
613.179	2264
613.658	2222
614.137	2247
614.616	2273
615.095	2236
615.574	2259
616.053	2254
616.532	2228
617.011	2253
617.491	2280
617.97	2277
618.449	2301
618.928	2312
619.408	2307
619.887	2333
620.367	2345
620.846	2367
621.326	2350
621.805	2375
622.285	2379
622.764	2420
623.244	2417
623.724	2423
624.203	2424
624.683	2392
625.163	2457
625.643	2459
626.123	2433
626.602	2465
627.082	2402
627.562	2423
628.042	2484
628.522	2470
629.002	2457
629.482	2474
629.963	2483
630.443	2474
630.923	2479
631.403	2484
631.883	2475
632.364	2476
632.844	2466
633.324	2482
633.805	2482
634.285	2449
634.766	2434
635.246	2451
635.727	2473
636.207	2479
636.688	2457
637.168	2447
637.649	2423
638.13	2417
638.611	2440
639.091	2435
639.572	2413
640.053	2402
640.534	2448
641.015	2458
641.496	2404
641.977	2449
642.458	2424
642.939	2406
643.42	2440
643.901	2458
644.382	2475
644.863	2458
645.345	2453
645.826	2465
646.307	2477
646.788	2524
647.27	2484
647.751	2493
648.233	2519
648.714	2457
649.196	2542
649.677	2527
650.159	2513
650.64	2480
651.122	2517
651.603	2483
652.085	2526
652.567	2533
653.049	2499
653.53	2492
654.012	2516
654.494	2478
654.976	2509
655.458	2510
655.94	2494
656.422	2521
656.904	2500
657.386	2493
657.868	2512
658.35	2498
658.833	2507
659.315	2511
659.797	2478
660.279	2489
660.762	2517
661.244	2485
661.726	2447
662.209	2440
662.691	2452
663.174	2405
663.656	2422
664.139	2418
664.621	2384
665.104	2362
665.587	2384
666.069	2408
666.552	2400
667.035	2376
667.517	2374
668	2384
668.483	2376
668.966	2372
669.449	2369
669.932	2383
670.415	2414
670.898	2400
671.381	2399
671.864	2417
672.347	2411
672.83	2428
673.313	2425
673.797	2406
674.28	2439
674.763	2446
675.247	2464
675.73	2469
676.213	2488
676.697	2500
677.18	2502
677.664	2507
678.147	2530
678.631	2540
679.114	2559
679.598	2537
680.082	2553
680.565	2555
681.049	2558
681.533	2568
682.017	2598
682.5	2587
682.984	2586
683.468	2582
683.952	2544
684.436	2602
684.92	2571
685.404	2561
685.888	2581
686.372	2560
686.856	2581
687.341	2625
687.825	2605
688.309	2622
688.793	2622
689.278	2573
689.762	2596
690.246	2597
690.731	2628
691.215	2620
691.7	2542
692.184	2554
692.669	2560
693.153	2586
693.638	2560
694.122	2581
694.607	2606
695.092	2556
695.577	2584
696.061	2542
696.546	2560
697.031	2543
697.516	2572
698.001	2559
698.486	2523
698.971	2555
699.456	2511
699.941	2530
700.426	2536
700.911	2551
701.396	2527
701.881	2538
702.366	2521
702.852	2521
703.337	2551
703.822	2553
704.308	2548
704.793	2547
705.278	2536
705.764	2552
706.249	2549
706.735	2575
707.22	2585
707.706	2536
708.191	2565
708.677	2552
709.163	2545
709.648	2592
710.134	2634
710.62	2596
711.106	2580
711.592	2599
712.077	2591
712.563	2550
713.049	2569
713.535	2630
714.021	2609
714.507	2595
714.993	2556
715.479	2592
715.966	2570
716.452	2591
716.938	2598
717.424	2512
717.91	2557
718.397	2516
718.883	2487
719.369	2502
719.856	2483
720.342	2522
720.829	2486
721.315	2496
721.802	2478
722.288	2506
722.775	2439
723.262	2393
723.748	2499
724.235	2475
724.722	2492
725.208	2431
725.695	2436
726.182	2437
726.669	2424
727.156	2448
727.643	2406
728.13	2416
728.617	2389
729.104	2388
729.591	2372
730.078	2411
730.565	2416
731.052	2383
731.539	2383
732.027	2358
732.514	2323
733.001	2354
733.488	2358
733.976	2360
734.463	2361
734.951	2338
735.438	2355
735.926	2319
736.413	2339
736.901	2334
737.388	2377
737.876	2378
738.364	2353
738.851	2361
739.339	2357
739.827	2379
740.314	2334
740.802	2368
741.29	2397
741.778	2351
742.266	2356
742.754	2342
743.242	2350
743.73	2311
744.218	2327
744.706	2314
745.194	2340
745.682	2313
746.17	2317
746.659	2302
747.147	2253
747.635	2285
748.123	2306
748.612	2311
749.1	2294
749.589	2304
750.077	2270
750.566	2263
751.054	2282
751.543	2307
752.031	2264
752.52	2275
753.008	2221
753.497	2199
753.986	2189
754.474	2160
754.963	2185
755.452	2168
755.941	2165
756.43	2165
756.919	2160
757.408	2123
757.896	2135
758.385	2140
758.875	2143
759.364	2149
759.853	2156
760.342	2112
760.831	2154
761.32	2129
761.809	2099
762.299	2116
762.788	2132
763.277	2139
763.767	2120
764.256	2117
764.745	2071
765.235	2099
765.724	2050
766.214	2090
766.703	2102
767.193	2084
767.683	2100
768.172	2058
768.662	2073
769.152	2058
769.641	2064
770.131	2026
770.621	2075
771.111	2062
771.601	2080
772.09	2065
772.58	2013
773.07	2006
773.56	2013
774.05	1990
774.54	1999
775.031	1994
775.521	1986
776.011	1983
776.501	1995
776.991	1946
777.482	1958
777.972	1927
778.462	1943
778.953	1983
779.443	1968
779.933	1962
780.424	1925
780.914	1924
781.405	1918
781.895	1904
782.386	1915
782.877	1912
783.367	1879
783.858	1870
784.349	1872
784.839	1843
785.33	1839
785.821	1828
786.312	1830
786.803	1842
787.293	1866
787.784	1836
788.275	1810
788.766	1791
789.257	1814
789.748	1778
790.24	1771
790.731	1808
791.222	1784
791.713	1787
792.204	1784
792.696	1730
793.187	1738
793.678	1731
794.169	1698
794.661	1749
795.152	1743
795.644	1739
796.135	1750
796.627	1740
797.118	1709
797.61	1695
798.101	1681
798.593	1718
799.085	1703
799.576	1721
800.068	1699
800.56	1696
801.052	1640
801.544	1629
802.035	1634
802.527	1630
803.019	1625
803.511	1626
804.003	1625
804.495	1633
804.987	1623
805.479	1574
805.971	1573
806.464	1584
806.956	1566
807.448	1575
807.94	1579
808.433	1572
808.925	1558
809.417	1532
809.91	1521
810.402	1489
810.894	1503
811.387	1524
811.879	1506
812.372	1525
812.865	1505
813.357	1492
813.85	1480
814.342	1459
814.835	1463
815.328	1470
815.821	1466
816.313	1490
816.806	1503
817.299	1498
817.792	1509
818.285	1494
818.778	1511
819.271	1513
819.764	1491
820.257	1504
820.75	1506
821.243	1519
821.736	1508
822.229	1517
822.722	1506
823.216	1533
