Data from lamp4helium_zwak_dubbel_Subt2__100__700.txt Node

Date: Wed Apr 09 12:16:28 CEST 2025
User: fys-lab-0081
Spectrometer: S04999
Trigger mode: 0
Resolution mode: 1024 pixels
Integration Time (sec): 1.000000E-1
Scans to average: 1
Nonlinearity correction enabled: false
Boxcar width: 0
Baseline correction enabled: true
XAxis mode: Wavelengths
Number of Pixels in Spectrum: 1024
>>>>>Begin Spectral Data<<<<<
336.42	1
336.877	5
337.334	-1
337.792	0
338.249	2
338.706	4
339.164	0
339.621	3
340.079	4
340.536	3
340.994	3
341.452	4
341.909	7
342.367	2
342.825	1
343.283	5
343.741	6
344.198	4
344.656	-6
345.114	-1
345.572	3
346.03	0
346.488	1
346.947	2
347.405	5
347.863	2
348.321	0
348.779	8
349.238	2
349.696	5
350.154	1
350.613	0
351.071	5
351.53	7
351.988	7
352.447	5
352.905	2
353.364	2
353.823	7
354.282	2
354.74	3
355.199	3
355.658	4
356.117	-2
356.576	4
357.035	2
357.494	4
357.953	0
358.412	10
358.871	3
359.33	4
359.789	2
360.249	5
360.708	3
361.167	5
361.626	5
362.086	7
362.545	7
363.005	5
363.464	5
363.924	5
364.383	3
364.843	5
365.303	12
365.762	7
366.222	4
366.682	4
367.142	2
367.601	9
368.061	5
368.521	6
368.981	6
369.441	15
369.901	12
370.361	4
370.821	2
371.282	6
371.742	11
372.202	11
372.662	9
373.123	8
373.583	7
374.043	13
374.504	8
374.964	5
375.425	12
375.885	11
376.346	11
376.806	12
377.267	8
377.728	13
378.188	16
378.649	13
379.11	10
379.571	8
380.032	12
380.493	16
380.954	16
381.414	11
381.876	13
382.337	16
382.798	17
383.259	17
383.72	15
384.181	13
384.642	18
385.104	18
385.565	22
386.026	22
386.488	24
386.949	25
387.411	21
387.872	25
388.334	26
388.795	26
389.257	25
389.719	24
390.181	23
390.642	26
391.104	30
391.566	27
392.028	28
392.49	32
392.952	33
393.414	33
393.876	33
394.338	29
394.8	34
395.262	29
395.724	37
396.186	35
396.648	39
397.111	38
397.573	40
398.035	34
398.498	37
398.96	35
399.423	39
399.885	33
400.348	41
400.81	39
401.273	40
401.736	39
402.198	49
402.661	44
403.124	44
403.587	53
404.049	51
404.512	49
404.975	49
405.438	49
405.901	55
406.364	53
406.827	51
407.29	52
407.754	55
408.217	54
408.68	53
409.143	56
409.607	63
410.07	55
410.533	56
410.997	62
411.46	60
411.924	62
412.387	65
412.851	59
413.314	61
413.778	62
414.242	67
414.705	72
415.169	69
415.633	66
416.097	68
416.561	75
417.024	72
417.488	74
417.952	73
418.416	67
418.88	67
419.344	64
419.809	69
420.273	75
420.737	70
421.201	79
421.665	77
422.13	78
422.594	83
423.059	82
423.523	81
423.987	79
424.452	88
424.916	88
425.381	94
425.846	90
426.31	95
426.775	97
427.24	100
427.704	95
428.169	97
428.634	99
429.099	96
429.564	95
430.029	94
430.494	95
430.959	95
431.424	98
431.889	104
432.354	104
432.819	97
433.284	109
433.75	108
434.215	111
434.68	108
435.146	110
435.611	114
436.077	124
436.542	121
437.008	127
437.473	133
437.939	129
438.404	138
438.87	134
439.336	137
439.801	137
440.267	141
440.733	142
441.199	136
441.665	143
442.131	146
442.596	138
443.062	151
443.529	155
443.995	154
444.461	157
444.927	160
445.393	151
445.859	162
446.325	168
446.792	181
447.258	180
447.724	189
448.191	197
448.657	197
449.124	199
449.59	196
450.057	216
450.523	220
450.99	223
451.457	222
451.923	221
452.39	219
452.857	231
453.324	223
453.791	230
454.257	233
454.724	230
455.191	231
455.658	229
456.125	238
456.592	237
457.059	241
457.527	242
457.994	253
458.461	254
458.928	255
459.396	257
459.863	268
460.33	264
460.798	267
461.265	277
461.732	274
462.2	280
462.668	275
463.135	285
463.603	276
464.07	289
464.538	279
465.006	285
465.474	277
465.941	278
466.409	279
466.877	275
467.345	278
467.813	272
468.281	280
468.749	285
469.217	283
469.685	290
470.153	296
470.621	293
471.09	293
471.558	306
472.026	307
472.494	315
472.963	312
473.431	329
473.9	331
474.368	340
474.837	345
475.305	357
475.774	353
476.242	368
476.711	374
477.18	381
477.648	378
478.117	386
478.586	389
479.055	379
479.524	393
479.993	383
480.462	382
480.93	385
481.399	390
481.869	392
482.338	382
482.807	392
483.276	392
483.745	390
484.214	397
484.684	408
485.153	402
485.622	405
486.092	415
486.561	411
487.031	419
487.5	425
487.97	434
488.439	442
488.909	454
489.378	461
489.848	470
490.318	483
490.787	507
491.257	513
491.727	516
492.197	529
492.667	528
493.137	533
493.607	544
494.077	547
494.547	534
495.017	533
495.487	552
495.957	561
496.427	553
496.897	551
497.368	559
497.838	550
498.308	559
498.779	562
499.249	560
499.719	562
500.19	576
500.66	575
501.131	575
501.602	601
502.072	591
502.543	602
503.014	616
503.484	619
503.955	624
504.426	650
504.897	648
505.368	666
505.838	679
506.309	684
506.78	714
507.251	730
507.722	738
508.194	757
508.665	777
509.136	773
509.607	798
510.078	820
510.549	825
511.021	843
511.492	846
511.964	860
512.435	873
512.906	862
513.378	870
513.849	891
514.321	880
514.793	885
515.264	906
515.736	909
516.208	912
516.679	920
517.151	943
517.623	951
518.095	958
518.567	968
519.038	998
519.51	1000
519.982	1005
520.454	1023
520.927	1036
521.399	1041
521.871	1047
522.343	1059
522.815	1081
523.287	1070
523.76	1084
524.232	1103
524.704	1110
525.177	1087
525.649	1098
526.122	1130
526.594	1095
527.067	1112
527.539	1134
528.012	1134
528.484	1123
528.957	1136
529.43	1137
529.903	1136
530.375	1163
530.848	1132
531.321	1147
531.794	1163
532.267	1177
532.74	1150
533.213	1157
533.686	1169
534.159	1156
534.632	1182
535.105	1183
535.578	1206
536.051	1202
536.525	1205
536.998	1212
537.471	1240
537.945	1212
538.418	1234
538.891	1247
539.365	1275
539.838	1279
540.312	1283
540.786	1283
541.259	1300
541.733	1317
542.206	1318
542.68	1303
543.154	1310
543.628	1306
544.101	1337
544.575	1341
545.049	1314
545.523	1335
545.997	1322
546.471	1334
546.945	1335
547.419	1339
547.893	1285
548.367	1306
548.842	1301
549.316	1299
549.79	1310
550.264	1304
550.739	1322
551.213	1322
551.687	1300
552.162	1329
552.636	1322
553.111	1315
553.585	1344
554.06	1325
554.534	1365
555.009	1355
555.484	1362
555.958	1370
556.433	1386
556.908	1403
557.383	1383
557.858	1416
558.333	1424
558.807	1417
559.282	1437
559.757	1472
560.232	1466
560.708	1454
561.183	1451
561.658	1463
562.133	1461
562.608	1461
563.083	1513
563.559	1475
564.034	1475
564.509	1486
564.985	1505
565.46	1489
565.936	1501
566.411	1497
566.887	1495
567.362	1512
567.838	1492
568.313	1507
568.789	1492
569.265	1500
569.74	1497
570.216	1482
570.692	1500
571.168	1500
571.644	1504
572.12	1489
572.596	1493
573.071	1485
573.547	1524
574.024	1548
574.5	1540
574.976	1552
575.452	1584
575.928	1601
576.404	1612
576.881	1655
577.357	1634
577.833	1655
578.31	1706
578.786	1714
579.262	1747
579.739	1740
580.215	1805
580.692	1805
581.169	1776
581.645	1790
582.122	1847
582.598	1843
583.075	1834
583.552	1848
584.029	1851
584.506	1852
584.982	1835
585.459	1858
585.936	1830
586.413	1861
586.89	1900
587.367	1863
587.844	1872
588.321	1857
588.799	1878
589.276	1866
589.753	1885
590.23	1885
590.707	1889
591.185	1900
591.662	1904
592.139	1920
592.617	1946
593.094	1949
593.572	1967
594.049	1979
594.527	1985
595.004	1975
595.482	2033
595.96	2045
596.437	2040
596.915	2074
597.393	2051
597.871	2106
598.349	2086
598.826	2123
599.304	2118
599.782	2153
600.26	2123
600.738	2175
601.216	2166
601.694	2169
602.173	2185
602.651	2221
603.129	2221
603.607	2249
604.085	2255
604.564	2246
605.042	2267
605.52	2273
605.999	2329
606.477	2276
606.956	2278
607.434	2301.5
607.913	2325
608.391	2311
608.87	2288
609.348	2254
609.827	2276
610.306	2299
610.785	2306
611.263	2301
611.742	2283
612.221	2263
612.7	2298
613.179	2295
613.658	2259
614.137	2281
614.616	2312
615.095	2267
615.574	2294
616.053	2289
616.532	2268
617.011	2291
617.491	2312
617.97	2323
618.449	2338
618.928	2354
619.408	2339
619.887	2378
620.367	2394
620.846	2422
621.326	2396
621.805	2431
622.285	2436
622.764	2478
623.244	2466
623.724	2469
624.203	2473
624.683	2436
625.163	2508
625.643	2497
626.123	2471
626.602	2505
627.082	2447
627.562	2466
628.042	2535
628.522	2512
629.002	2500
629.482	2515
629.963	2523
630.443	2523
630.923	2524
631.403	2535
631.883	2511
632.364	2510
632.844	2509
633.324	2529
633.805	2531
634.285	2507
634.766	2492
635.246	2517
635.727	2533
636.207	2538
636.688	2524
637.168	2508
637.649	2486
638.13	2489
638.611	2506
639.091	2506
639.572	2487
640.053	2463
640.534	2497
641.015	2512
641.496	2467
641.977	2503
642.458	2464
642.939	2463
643.42	2481
643.901	2493
644.382	2501
644.863	2479
645.345	2481
645.826	2474
646.307	2496
646.788	2542
647.27	2493
647.751	2497
648.233	2529
648.714	2467
649.196	2548
649.677	2534
650.159	2532
650.64	2485
651.122	2532
651.603	2502
652.085	2551
652.567	2569
653.049	2541
653.53	2533
654.012	2564
654.494	2529
654.976	2562
655.458	2563
655.94	2543
656.422	2582
656.904	2557
657.386	2556
657.868	2565
658.35	2554
658.833	2565
659.315	2561
659.797	2540
660.279	2545
660.762	2576
661.244	2544
661.726	2508
662.209	2486
662.691	2499
663.174	2446
663.656	2453
664.139	2447
664.621	2416
665.104	2384
665.587	2414
666.069	2421
666.552	2432
667.035	2404
667.517	2395
668	2406
668.483	2412
668.966	2405
669.449	2403
669.932	2413
670.415	2433
670.898	2424
671.381	2432
671.864	2452
672.347	2452
672.83	2470
673.313	2474
673.797	2450
674.28	2490
674.763	2488
675.247	2513
675.73	2516
676.213	2536
676.697	2548
677.18	2540
677.664	2540
678.147	2552
678.631	2567
679.114	2577
679.598	2558
680.082	2566
680.565	2564
681.049	2559
681.533	2573
682.017	2598
682.5	2583
682.984	2588
683.468	2579
683.952	2551
684.436	2605
684.92	2558
685.404	2573
685.888	2584
686.372	2563
686.856	2588
687.341	2639
687.825	2622
688.309	2647
688.793	2646
689.278	2601
689.762	2645
690.246	2638
690.731	2661
691.215	2672
691.7	2599
692.184	2616
692.669	2623
693.153	2640
693.638	2620
694.122	2636
694.607	2662
695.092	2609
695.577	2629
696.061	2590
696.546	2598
697.031	2580
697.516	2602
698.001	2590
698.486	2548
698.971	2572
699.456	2519
699.941	2539
700.426	2546
700.911	2567
701.396	2529
701.881	2542
702.366	2533
702.852	2532
703.337	2565
703.822	2568
704.308	2551
704.793	2552
705.278	2542
705.764	2555
706.249	2556
706.735	2582
707.22	2602
707.706	2561
708.191	2586
708.677	2585
709.163	2585
709.648	2628
710.134	2659
710.62	2628
711.106	2618
711.592	2647
712.077	2633
712.563	2587
713.049	2604
713.535	2670
714.021	2637
714.507	2621
714.993	2585
715.479	2615
715.966	2595
716.452	2620
716.938	2618
717.424	2540
717.91	2586
718.397	2534
718.883	2501
719.369	2519
719.856	2499
720.342	2542
720.829	2517
721.315	2521
721.802	2495
722.288	2525
722.775	2447
723.262	2393
723.748	2503
724.235	2484
724.722	2503
725.208	2441
725.695	2443
726.182	2441
726.669	2429
727.156	2460
727.643	2425
728.13	2430
728.617	2412
729.104	2416
729.591	2406
730.078	2432
730.565	2451
731.052	2420
731.539	2413
732.027	2385
732.514	2360
733.001	2394
733.488	2400
733.976	2421
734.463	2404
734.951	2392
735.438	2409
735.926	2377
736.413	2393
736.901	2387
737.388	2434
737.876	2422
738.364	2397
738.851	2390
739.339	2379
739.827	2405
740.314	2342
740.802	2373
741.29	2400
741.778	2367
742.266	2359
742.754	2350
743.242	2352
743.73	2309
744.218	2327
744.706	2312
745.194	2352
745.682	2329
746.17	2337
746.659	2321
747.147	2276
747.635	2309
748.123	2330
748.612	2323
749.1	2305
749.589	2311
750.077	2290
750.566	2273
751.054	2298
751.543	2326
752.031	2290
752.52	2315
753.008	2258
753.497	2237
753.986	2229
754.474	2209
754.963	2234
755.452	2223
755.941	2226
756.43	2227
756.919	2216
757.408	2186
757.896	2186
758.385	2195
758.875	2192
759.364	2191
759.853	2202
760.342	2162
760.831	2203
761.32	2177
761.809	2138
762.299	2155
762.788	2179
763.277	2187
763.767	2164
764.256	2162
764.745	2115
765.235	2136
765.724	2074
766.214	2112
766.703	2122
767.193	2097
767.683	2116
768.172	2066
768.662	2082
769.152	2061
769.641	2068
770.131	2029
770.621	2070
771.111	2069
771.601	2094
772.09	2061
772.58	2021
773.07	2019
773.56	2044
774.05	2003
774.54	2017
775.031	2025
775.521	2024
776.011	2022
776.501	2026
776.991	1986
777.482	2004
777.972	1966
778.462	1986
778.953	2023
779.443	2014
779.933	2009
780.424	1973
780.914	1980
781.405	1977
781.895	1971
782.386	1975
782.877	1972
783.367	1945
783.858	1924
784.349	1933
784.839	1902
785.33	1895
785.821	1887
786.312	1879
786.803	1894
787.293	1906
787.784	1879
788.275	1852
788.766	1824
789.257	1854
789.748	1815
790.24	1805
790.731	1828
791.222	1816
791.713	1818
792.204	1814
792.696	1752
793.187	1771
793.678	1754
794.169	1717
794.661	1776
795.152	1766
795.644	1762
796.135	1769
796.627	1766
797.118	1738
797.61	1726
798.101	1720
798.593	1759
799.085	1732
799.576	1754
800.068	1743
800.56	1735
801.052	1682
801.544	1671
802.035	1672
802.527	1663
803.019	1664
803.511	1657
804.003	1673
804.495	1673
804.987	1662
805.479	1620
805.971	1625
806.464	1640
806.956	1610
807.448	1619
807.94	1631
808.433	1618
808.925	1603
809.417	1574
809.91	1565
810.402	1526
810.894	1542
811.387	1558
811.879	1536
812.372	1545
812.865	1527
813.357	1517
813.85	1495
814.342	1479
814.835	1484
815.328	1494
815.821	1484
816.313	1511
816.806	1521
817.299	1513
817.792	1526
818.285	1503
818.778	1514
819.271	1515
819.764	1503
820.257	1511
820.75	1516
821.243	1526
821.736	1521
822.229	1527
822.722	1514
823.216	1545
