Data from lamp4helium_zwak_dubbel_Subt2__141__741.txt Node

Date: Wed Apr 09 12:16:33 CEST 2025
User: fys-lab-0081
Spectrometer: S04999
Trigger mode: 0
Resolution mode: 1024 pixels
Integration Time (sec): 1.000000E-1
Scans to average: 1
Nonlinearity correction enabled: false
Boxcar width: 0
Baseline correction enabled: true
XAxis mode: Wavelengths
Number of Pixels in Spectrum: 1024
>>>>>Begin Spectral Data<<<<<
336.42	-1
336.877	5
337.334	3
337.792	5
338.249	3
338.706	2
339.164	6
339.621	3
340.079	5
340.536	2
340.994	2
341.452	5
341.909	7
342.367	0
342.825	-1
343.283	7
343.741	-1
344.198	3
344.656	2
345.114	1
345.572	3
346.03	1
346.488	1
346.947	1
347.405	4
347.863	5
348.321	-2
348.779	6
349.238	4
349.696	3
350.154	-2
350.613	1
351.071	5
351.53	11
351.988	7
352.447	4
352.905	-3
353.364	6
353.823	8
354.282	3
354.74	-2
355.199	7
355.658	7
356.117	5
356.576	3
357.035	0
357.494	6
357.953	3
358.412	8
358.871	7
359.33	3
359.789	1
360.249	4
360.708	2
361.167	3
361.626	6
362.086	6
362.545	3
363.005	4
363.464	6
363.924	4
364.383	0
364.843	5
365.303	9
365.762	12
366.222	5
366.682	5
367.142	6
367.601	7
368.061	5
368.521	3
368.981	1
369.441	8
369.901	12
370.361	9
370.821	5
371.282	10
371.742	9
372.202	9
372.662	11
373.123	6
373.583	7
374.043	10
374.504	8
374.964	6
375.425	6
375.885	13
376.346	14
376.806	15
377.267	7
377.728	10
378.188	11
378.649	9
379.11	12
379.571	10
380.032	16
380.493	14
380.954	17
381.414	10
381.876	13
382.337	12
382.798	13
383.259	20
383.72	17
384.181	17
384.642	15
385.104	21
385.565	20
386.026	21
386.488	21
386.949	21
387.411	18
387.872	26
388.334	27
388.795	25
389.257	25
389.719	19
390.181	25
390.642	24
391.104	27
391.566	29
392.028	29
392.49	34
392.952	35
393.414	33
393.876	36
394.338	28
394.8	30
395.262	25
395.724	40
396.186	38
396.648	37
397.111	36
397.573	39
398.035	33
398.498	37
398.96	33
399.423	35
399.885	33
400.348	42
400.81	40
401.273	41
401.736	35
402.198	45
402.661	48
403.124	39
403.587	51
404.049	51.5
404.512	52
404.975	47
405.438	53
405.901	52
406.364	52
406.827	49
407.29	53
407.754	51
408.217	53
408.68	50
409.143	57
409.607	62
410.07	55
410.533	58
410.997	54
411.46	56
411.924	63
412.387	62
412.851	62
413.314	61
413.778	61
414.242	66
414.705	64
415.169	69
415.633	66
416.097	70
416.561	71
417.024	72
417.488	70
417.952	73
418.416	65
418.88	66
419.344	67
419.809	69
420.273	72
420.737	67
421.201	72
421.665	73
422.13	77
422.594	81
423.059	77
423.523	78
423.987	77
424.452	82
424.916	85
425.381	89
425.846	82
426.31	93
426.775	91
427.24	92
427.704	92
428.169	91
428.634	96
429.099	99
429.564	92
430.029	93
430.494	96
430.959	92
431.424	96
431.889	101
432.354	104
432.819	97
433.284	106
433.75	98
434.215	109
434.68	104
435.146	105
435.611	112
436.077	113
436.542	116
437.008	122
437.473	127
437.939	122
438.404	129
438.87	131
439.336	129
439.801	131
440.267	133
440.733	136
441.199	137
441.665	138
442.131	141
442.596	135
443.062	145
443.529	149
443.995	148
444.461	153
444.927	155
445.393	151
445.859	160
446.325	160
446.792	174
447.258	177
447.724	179
448.191	193
448.657	191
449.124	190
449.59	193
450.057	207
450.523	212
450.99	207
451.457	211
451.923	216
452.39	219
452.857	223
453.324	214
453.791	221
454.257	223
454.724	223
455.191	220
455.658	226
456.125	231
456.592	226
457.059	232
457.527	231
457.994	242
458.461	246
458.928	248
459.396	249
459.863	251
460.33	255
460.798	259
461.265	264
461.732	264
462.2	275
462.668	269
463.135	272
463.603	267
464.07	278
464.538	266
465.006	275
465.474	268
465.941	269
466.409	270
466.877	269
467.345	273
467.813	267
468.281	276
468.749	281
469.217	273
469.685	283
470.153	284
470.621	284
471.09	285
471.558	296
472.026	294
472.494	304
472.963	304
473.431	316
473.9	321
474.368	326
474.837	336
475.305	340
475.774	344
476.242	357
476.711	357
477.18	369
477.648	365
478.117	376
478.586	370
479.055	369
479.524	377
479.993	372
480.462	366
480.93	370
481.399	379
481.869	372
482.338	367
482.807	379
483.276	375
483.745	379
484.214	384
484.684	390
485.153	388
485.622	389
486.092	398
486.561	391
487.031	406
487.5	411
487.97	411
488.439	426
488.909	436
489.378	447
489.848	454
490.318	470
490.787	492
491.257	490
491.727	500
492.197	512
492.667	508
493.137	516
493.607	521
494.077	530
494.547	521
495.017	518
495.487	533
495.957	546
496.427	532
496.897	535
497.368	542
497.838	534
498.308	542
498.779	542
499.249	544
499.719	546
500.19	558
500.66	557
501.131	558
501.602	567
502.072	568
502.543	581
503.014	596
503.484	593
503.955	603
504.426	624
504.897	630
505.368	645
505.838	648
506.309	661
506.78	689
507.251	704
507.722	713
508.194	736
508.665	754
509.136	748
509.607	775
510.078	792
510.549	798
511.021	818
511.492	819
511.964	832
512.435	838
512.906	832
513.378	846
513.849	859
514.321	864
514.793	864
515.264	881
515.736	885
516.208	891
516.679	900
517.151	915
517.623	922
518.095	930
518.567	937
519.038	965
519.51	970
519.982	972
520.454	991
520.927	1002
521.399	999
521.871	1011
522.343	1026
522.815	1039
523.287	1027
523.76	1038
524.232	1069
524.704	1072
525.177	1056
525.649	1062
526.122	1094
526.594	1067
527.067	1084
527.539	1094
528.012	1098
528.484	1092
528.957	1091
529.43	1095
529.903	1097
530.375	1121
530.848	1084
531.321	1105
531.794	1118
532.267	1126
532.74	1107
533.213	1111
533.686	1127
534.159	1109
534.632	1134
535.105	1141
535.578	1165
536.051	1163
536.525	1158
536.998	1175
537.471	1199
537.945	1179
538.418	1192
538.891	1208
539.365	1243
539.838	1244
540.312	1239
540.786	1252
541.259	1264
541.733	1279
542.206	1273
542.68	1260
543.154	1267
543.628	1269
544.101	1284
544.575	1287
545.049	1276
545.523	1287
545.997	1280
546.471	1292
546.945	1285
547.419	1301
547.893	1241
548.367	1271
548.842	1268
549.316	1268
549.79	1275
550.264	1268
550.739	1281
551.213	1286
551.687	1264
552.162	1284
552.636	1283
553.111	1274
553.585	1299
554.06	1279
554.534	1309
555.009	1301
555.484	1320
555.958	1313
556.433	1330
556.908	1357
557.383	1338
557.858	1362
558.333	1372
558.807	1370
559.282	1388
559.757	1420
560.232	1418
560.708	1413
561.183	1414
561.658	1418
562.133	1406
562.608	1404
563.083	1457
563.559	1421
564.034	1422
564.509	1436
564.985	1456
565.46	1440
565.936	1454
566.411	1452
566.887	1438
567.362	1455
567.838	1438
568.313	1447
568.789	1446
569.265	1452
569.74	1448
570.216	1429
570.692	1448
571.168	1449
571.644	1454
572.12	1437
572.596	1443
573.071	1436
573.547	1483
574.024	1497
574.5	1492
574.976	1502
575.452	1541
575.928	1553
576.404	1556
576.881	1593
577.357	1579
577.833	1605
578.31	1648
578.786	1653
579.262	1685
579.739	1685
580.215	1744
580.692	1741
581.169	1713
581.645	1733
582.122	1793
582.598	1776
583.075	1774
583.552	1779
584.029	1782
584.506	1784
584.982	1775
585.459	1797
585.936	1767
586.413	1805
586.89	1847
587.367	1808
587.844	1817
588.321	1804
588.799	1823
589.276	1812
589.753	1829
590.23	1837
590.707	1832
591.185	1848
591.662	1850
592.139	1862
592.617	1882
593.094	1884
593.572	1908
594.049	1914
594.527	1917
595.004	1909
595.482	1964
595.96	1970
596.437	1972
596.915	2011
597.393	1979
597.871	2032
598.349	2015
598.826	2063
599.304	2051
599.782	2084
600.26	2052
600.738	2109
601.216	2098
601.694	2102
602.173	2118
602.651	2154
603.129	2151
603.607	2177
604.085	2186
604.564	2181
605.042	2199
605.52	2202
605.999	2253
606.477	2200
606.956	2208
607.434	2230.5
607.913	2253
608.391	2245
608.87	2217
609.348	2179
609.827	2201
610.306	2219
610.785	2227
611.263	2217
611.742	2194
612.221	2171
612.7	2216
613.179	2224
613.658	2184
614.137	2198
614.616	2233
615.095	2199
615.574	2219
616.053	2221
616.532	2194
617.011	2221
617.491	2251
617.97	2250
618.449	2263
618.928	2283
619.408	2278
619.887	2311
620.367	2327
620.846	2341
621.326	2330
621.805	2359
622.285	2355
622.764	2395
623.244	2397
623.724	2393
624.203	2394
624.683	2368
625.163	2433
625.643	2426
626.123	2412
626.602	2440
627.082	2376
627.562	2399
628.042	2469
628.522	2451
629.002	2438
629.482	2446
629.963	2463
630.443	2456
630.923	2464
631.403	2475
631.883	2439
632.364	2444
632.844	2434
633.324	2455
633.805	2460
634.285	2430
634.766	2415
635.246	2424
635.727	2442
636.207	2452
636.688	2431
637.168	2422
637.649	2396
638.13	2391
638.611	2421
639.091	2416
639.572	2404
640.053	2390
640.534	2415
641.015	2440
641.496	2406
641.977	2441
642.458	2402
642.939	2407
643.42	2419
643.901	2434
644.382	2445
644.863	2426
645.345	2424
645.826	2426
646.307	2443
646.788	2495
647.27	2449
647.751	2456
648.233	2491
648.714	2434
649.196	2509
649.677	2494
650.159	2492
650.64	2458
651.122	2486
651.603	2449
652.085	2493
652.567	2501
653.049	2473
653.53	2459
654.012	2490
654.494	2451
654.976	2481
655.458	2472
655.94	2463
656.422	2502
656.904	2483
657.386	2471
657.868	2486
658.35	2476
658.833	2483
659.315	2490
659.797	2462
660.279	2472
660.762	2502
661.244	2467
661.726	2430
662.209	2418
662.691	2418
663.174	2374
663.656	2386
664.139	2387
664.621	2351
665.104	2323
665.587	2343
666.069	2370
666.552	2369
667.035	2351
667.517	2335
668	2344
668.483	2337
668.966	2329
669.449	2337
669.932	2339
670.415	2371
670.898	2365
671.381	2364
671.864	2375
672.347	2358
672.83	2375
673.313	2372
673.797	2360
674.28	2397
674.763	2388
675.247	2412
675.73	2412
676.213	2433
676.697	2450
677.18	2437
677.664	2447
678.147	2456
678.631	2482
679.114	2494
679.598	2490
680.082	2492
680.565	2496
681.049	2497
681.533	2509
682.017	2539
682.5	2524
682.984	2542
683.468	2534
683.952	2504
684.436	2563
684.92	2526
685.404	2523
685.888	2542
686.372	2513
686.856	2528
687.341	2571
687.825	2563
688.309	2598
688.793	2590
689.278	2551
689.762	2579
690.246	2572
690.731	2606
691.215	2595
691.7	2520
692.184	2535
692.669	2539
693.153	2554
693.638	2542
694.122	2557
694.607	2579
695.092	2533
695.577	2551
696.061	2509
696.546	2522
697.031	2522
697.516	2533
698.001	2516
698.486	2483
698.971	2508
699.456	2464
699.941	2479
700.426	2488
700.911	2508
701.396	2481
701.881	2485
702.366	2483
702.852	2476
703.337	2513
703.822	2512
704.308	2501
704.793	2494
705.278	2482
705.764	2495
706.249	2497
706.735	2520
707.22	2541
707.706	2501
708.191	2523
708.677	2516
709.163	2515
709.648	2558
710.134	2587
710.62	2554
711.106	2542
711.592	2565
712.077	2561
712.563	2512
713.049	2521
713.535	2576
714.021	2556
714.507	2537
714.993	2501
715.479	2531
715.966	2502
716.452	2531
716.938	2546
717.424	2465
717.91	2502
718.397	2455
718.883	2421
719.369	2427
719.856	2420
720.342	2460
720.829	2429
721.315	2433
721.802	2417
722.288	2436
722.775	2370
723.262	2327
723.748	2443
724.235	2417
724.722	2443
725.208	2383
725.695	2390
726.182	2394
726.669	2378
727.156	2406
727.643	2374
728.13	2360
728.617	2339
729.104	2330
729.591	2317
730.078	2353
730.565	2372
731.052	2339
731.539	2333
732.027	2319
732.514	2290
733.001	2322
733.488	2327
733.976	2340
734.463	2334
734.951	2321
735.438	2338
735.926	2303
736.413	2322
736.901	2316
737.388	2365
737.876	2355
738.364	2325
738.851	2322
739.339	2308
739.827	2329
740.314	2282
740.802	2322
741.29	2342
741.778	2306
742.266	2296
742.754	2286
743.242	2295
743.73	2255
744.218	2267
744.706	2259
745.194	2293
745.682	2275
746.17	2272
746.659	2257
747.147	2207
747.635	2241
748.123	2268
748.612	2263
749.1	2250
749.589	2251
750.077	2234
750.566	2223
751.054	2248
751.543	2283
752.031	2237
752.52	2254
753.008	2197
753.497	2183
753.986	2160
754.474	2139
754.963	2161
755.452	2143
755.941	2147
756.43	2153
756.919	2136
757.408	2114
757.896	2119
758.385	2128
758.875	2131
759.364	2130
759.853	2127
760.342	2088
760.831	2136
761.32	2115
761.809	2080
762.299	2099
762.788	2125
763.277	2135
763.767	2114
764.256	2108
764.745	2068
765.235	2080
765.724	2025
766.214	2073
766.703	2075
767.193	2056
767.683	2077
768.172	2032
768.662	2043
769.152	2023
769.641	2041
770.131	2000
770.621	2045
771.111	2032
771.601	2051
772.09	2023
772.58	1985
773.07	1979
773.56	1994
774.05	1979
774.54	1981
775.031	1992
775.521	1989
776.011	1972
776.501	1984
776.991	1933
777.482	1953
777.972	1912
778.462	1933
778.953	1961
779.443	1951
779.933	1935
780.424	1897
780.914	1905
781.405	1898
781.895	1880
782.386	1899
782.877	1894
783.367	1867
783.858	1854
784.349	1852
784.839	1831
785.33	1827
785.821	1815
786.312	1822
786.803	1834
787.293	1850
787.784	1828
788.275	1800
788.766	1774
789.257	1811
789.748	1777
790.24	1763
790.731	1793
791.222	1773
791.713	1784
792.204	1777
792.696	1721
793.187	1734
793.678	1713
794.169	1677
794.661	1732
795.152	1726
795.644	1715
796.135	1724
796.627	1715
797.118	1685
797.61	1673
798.101	1661
798.593	1699
799.085	1685
799.576	1705
800.068	1686
800.56	1679
801.052	1621
801.544	1615
802.035	1621
802.527	1609
803.019	1611
803.511	1619
804.003	1616
804.495	1623
804.987	1604
805.479	1560
805.971	1568
806.464	1574
806.956	1544
807.448	1553
807.94	1568
808.433	1561
808.925	1547
809.417	1523
809.91	1511
810.402	1481
810.894	1499
811.387	1518
811.879	1496
812.372	1512
812.865	1495
813.357	1481
813.85	1468
814.342	1450
814.835	1454
815.328	1460
815.821	1459
816.313	1475
816.806	1488
817.299	1486
817.792	1501
818.285	1475
818.778	1488
819.271	1497
819.764	1480
820.257	1493
820.75	1497
821.243	1508
821.736	1493
822.229	1504
822.722	1497
823.216	1526
