Data from lamp4helium_zwak_Subt2__59__459.txt Node

Date: Wed Apr 09 11:14:38 CEST 2025
User: fys-lab-0081
Spectrometer: S04999
Trigger mode: 0
Resolution mode: 1024 pixels
Integration Time (sec): 1.000000E-1
Scans to average: 1
Nonlinearity correction enabled: false
Boxcar width: 0
Baseline correction enabled: true
XAxis mode: Wavelengths
Number of Pixels in Spectrum: 1024
>>>>>Begin Spectral Data<<<<<
336.42	0
336.877	1
337.334	3
337.792	-1
338.249	6
338.706	1
339.164	3
339.621	5
340.079	1
340.536	3
340.994	6
341.452	5
341.909	7
342.367	1
342.825	-4
343.283	9
343.741	4
344.198	2
344.656	1
345.114	2
345.572	5
346.03	-1
346.488	3
346.947	5
347.405	3
347.863	3
348.321	1
348.779	8
349.238	2
349.696	6
350.154	1
350.613	1
351.071	6
351.53	6
351.988	7
352.447	2
352.905	1
353.364	2
353.823	6
354.282	8
354.74	3
355.199	5
355.658	7
356.117	0
356.576	5
357.035	6
357.494	5
357.953	1
358.412	8
358.871	2
359.33	6
359.789	5
360.249	11
360.708	9
361.167	9
361.626	7
362.086	7
362.545	9
363.005	8
363.464	7
363.924	11
364.383	10
364.843	13
365.303	13
365.762	10
366.222	13
366.682	11
367.142	11
367.601	12
368.061	10
368.521	10
368.981	8
369.441	21
369.901	11
370.361	13
370.821	11
371.282	9
371.742	15
372.202	17
372.662	19
373.123	10
373.583	16
374.043	18
374.504	14
374.964	13
375.425	18
375.885	13
376.346	19
376.806	20
377.267	15
377.728	26
378.188	20
378.649	19
379.11	21
379.571	17
380.032	22
380.493	18
380.954	26
381.414	20
381.876	25
382.337	22
382.798	27
383.259	28
383.72	25
384.181	22
384.642	26
385.104	29
385.565	35
386.026	36
386.488	34
386.949	32
387.411	35
387.872	33
388.334	42
388.795	42
389.257	42
389.719	41
390.181	39
390.642	45
391.104	42
391.566	44
392.028	47
392.49	54
392.952	55
393.414	51
393.876	50
394.338	51
394.8	55
395.262	51
395.724	54
396.186	56
396.648	55
397.111	54
397.573	61
398.035	58
398.498	61
398.96	65
399.423	61
399.885	59
400.348	65
400.81	66
401.273	63
401.736	65
402.198	71
402.661	76
403.124	73
403.587	80
404.049	77
404.512	74
404.975	76
405.438	83
405.901	81
406.364	82
406.827	84
407.29	87
407.754	86
408.217	82
408.68	85
409.143	92
409.607	91
410.07	92
410.533	88
410.997	93
411.46	95
411.924	99
412.387	99
412.851	98
413.314	100
413.778	101
414.242	105
414.705	111
415.169	108
415.633	109
416.097	104
416.561	112
417.024	110
417.488	110
417.952	115
418.416	109
418.88	111
419.344	107
419.809	111
420.273	120
420.737	115
421.201	118
421.665	124
422.13	124
422.594	128
423.059	131
423.523	136
423.987	131
424.452	140
424.916	138
425.381	145
425.846	140
426.31	148
426.775	149
427.24	151
427.704	154
428.169	156
428.634	156
429.099	156
429.564	151
430.029	156
430.494	156
430.959	154
431.424	156
431.889	166
432.354	165
432.819	157
433.284	172
433.75	173
434.215	182
434.68	176
435.146	179
435.611	185
436.077	192
436.542	191
437.008	207
437.473	206
437.939	203
438.404	214
438.87	216
439.336	211
439.801	214
440.267	216
440.733	221
441.199	219
441.665	223
442.131	233
442.596	225
443.062	231
443.529	248
443.995	247
444.461	250
444.927	262
445.393	261
445.859	273
446.325	283
446.792	297
447.258	292
447.724	303
448.191	316
448.657	313
449.124	320
449.59	317
450.057	343
450.523	347
450.99	348
451.457	347
451.923	354
452.39	355
452.857	367
453.324	356
453.791	366
454.257	371
454.724	373
455.191	375
455.658	372
456.125	386
456.592	379
457.059	383
457.527	387
457.994	404
458.461	404
458.928	414
459.396	416
459.863	426
460.33	419
460.798	430
461.265	434
461.732	430
462.2	445
462.668	440
463.135	444
463.603	433
464.07	453
464.538	441
465.006	450
465.474	447
465.941	444
466.409	445
466.877	439
467.345	456
467.813	444
468.281	458
468.749	458
469.217	458
469.685	465
470.153	477
470.621	478
471.09	482
471.558	502
472.026	504
472.494	512
472.963	522
473.431	535
473.9	544
474.368	563
474.837	568
475.305	576
475.774	589
476.242	602
476.711	598
477.18	620
477.648	615
478.117	624
478.586	618
479.055	624
479.524	630
479.993	629
480.462	627
480.93	630
481.399	631
481.869	637
482.338	630
482.807	644
483.276	634
483.745	638
484.214	662
484.684	668
485.153	668
485.622	677
486.092	696
486.561	680
487.031	713
487.5	718
487.97	727
488.439	752
488.909	768
489.378	797
489.848	800
490.318	812
490.787	848
491.257	848
491.727	856
492.197	873
492.667	871
493.137	884
493.607	895
494.077	903
494.547	895
495.017	889
495.487	908
495.957	927
496.427	909
496.897	905
497.368	924
497.838	912
498.308	925
498.779	947
499.249	936
499.719	952
500.19	967
500.66	969
501.131	978
501.602	998
502.072	999
502.543	1015
503.014	1052
503.484	1054
503.955	1078
504.426	1118
504.897	1125
505.368	1147
505.838	1172
506.309	1193
506.78	1230
507.251	1252
507.722	1278
508.194	1315
508.665	1336
509.136	1331
509.607	1365
510.078	1372
510.549	1380
511.021	1420
511.492	1424
511.964	1443
512.435	1461
512.906	1461
513.378	1469
513.849	1502
514.321	1495
514.793	1510
515.264	1536
515.736	1552
516.208	1584
516.679	1600
517.151	1616
517.623	1621
518.095	1648
518.567	1659
519.038	1702
519.51	1699
519.982	1709
520.454	1722
520.927	1745
521.399	1778
521.871	1795
522.343	1801
522.815	1824
523.287	1824
523.76	1839
524.232	1870
524.704	1877
525.177	1848
525.649	1854
526.122	1879
526.594	1838
527.067	1885
527.539	1916
528.012	1896
528.484	1892
528.957	1907
529.43	1906
529.903	1888
530.375	1960
530.848	1921
531.321	1944
531.794	1949
532.267	1977
532.74	1953
533.213	1951
533.686	1986
534.159	1981
534.632	2034
535.105	2041
535.578	2094
536.051	2096
536.525	2104
536.998	2098
537.471	2134
537.945	2117
538.418	2151
538.891	2152
539.365	2180
539.838	2204
540.312	2195
540.786	2199
541.259	2195
541.733	2233
542.206	2237
542.68	2207
543.154	2209
543.628	2216
544.101	2267
544.575	2231
545.049	2173
545.523	2223
545.997	2225
546.471	2246
546.945	2219
547.419	2254
547.893	2183
548.367	2229
548.842	2203
549.316	2229
549.79	2245
550.264	2217
550.739	2246
551.213	2243
551.687	2235
552.162	2258
552.636	2244
553.111	2250
553.585	2317
554.06	2293
554.534	2328
555.009	2314
555.484	2351
555.958	2394
556.433	2394
556.908	2432
557.383	2401
557.858	2470
558.333	2471
558.807	2461
559.282	2481
559.757	2551
560.232	2540
560.708	2494
561.183	2486
561.658	2524
562.133	2521
562.608	2503
563.083	2563
563.559	2510
564.034	2517
564.509	2516
564.985	2521
565.46	2505
565.936	2561
566.411	2551
566.887	2527
567.362	2548
567.838	2559
568.313	2586
568.789	2532
569.265	2526
569.74	2548
570.216	2536
570.692	2577
571.168	2574
571.644	2582
572.12	2579
572.596	2614
573.071	2626
573.547	2710
574.024	2739
574.5	2745
574.976	2749
575.452	2778
575.928	2810
576.404	2840
576.881	2948
577.357	2888
577.833	2895
578.31	2979
578.786	3012
579.262	3045
579.739	3004
580.215	3087
580.692	3083
581.169	3068
581.645	3066
582.122	3159
582.598	3168
583.075	3181
583.552	3198
584.029	3186
584.506	3146
584.982	3117
585.459	3193
585.936	3155
586.413	3200
586.89	3253
587.367	3210
587.844	3254
588.321	3227
588.799	3259
589.276	3232
589.753	3295
590.23	3321
590.707	3302
591.185	3298
591.662	3299
592.139	3322
592.617	3382
593.094	3363
593.572	3394
594.049	3433
594.527	3480
595.004	3482
595.482	3583
595.96	3563
596.437	3573
596.915	3660
597.393	3587
597.871	3658
598.349	3641
598.826	3711
599.304	3703
599.782	3781
600.26	3741
600.738	3824
601.216	3807
601.694	3823
602.173	3835
602.651	3858
603.129	3800
603.607	3841
604.085	3869
604.564	3872
605.042	3887
605.52	3865
605.999	3961
606.477	3851
606.956	3853
607.434	3902
607.913	3951
608.391	3944
608.87	3920
609.348	3835
609.827	3854
610.306	3879
610.785	3882
611.263	3884
611.742	3862
612.221	3821
612.7	3873
613.179	3913
613.658	3866
614.137	3922
614.616	3946
615.095	3885
615.574	3941
616.053	3963
616.532	3933
617.011	3930
617.491	3976
617.97	3962
618.449	4027
618.928	4034
619.408	4005
619.887	4050
620.367	4078
620.846	4111
621.326	4079
621.805	4162
622.285	4150
622.764	4177
623.244	4192
623.724	4201
624.203	4227
624.683	4161
625.163	4259
625.643	4256
626.123	4221
626.602	4320
627.082	4213
627.562	4206
628.042	4279
628.522	4239
629.002	4185
629.482	4239
629.963	4247
630.443	4231
630.923	4242
631.403	4271
631.883	4247
632.364	4248
632.844	4223
633.324	4255
633.805	4263
634.285	4213
634.766	4176
635.246	4171
635.727	4162
636.207	4163
636.688	4168
637.168	4160
637.649	4153
638.13	4118
638.611	4147
639.091	4149
639.572	4135
640.053	4118
640.534	4151
641.015	4141
641.496	4050
641.977	4134
642.458	4107
642.939	4114
643.42	4123
643.901	4125
644.382	4168
644.863	4142
645.345	4126
645.826	4109
646.307	4129
646.788	4197
647.27	4113
647.751	4132
648.233	4156
648.714	4069
649.196	4193
649.677	4175
650.159	4179
650.64	4142
651.122	4205
651.603	4135
652.085	4143
652.567	4164
653.049	4143
653.53	4143
654.012	4195
654.494	4104
654.976	4160
655.458	4160
655.94	4133
656.422	4198
656.904	4120
657.386	4053
657.868	4067
658.35	4042
658.833	4105
659.315	4120
659.797	4060
660.279	4058
660.762	4083
661.244	4044
661.726	3989
662.209	3999
662.691	4016
663.174	3936
663.656	3955
664.139	3945
664.621	3904
665.104	3874
665.587	3931
666.069	3950
666.552	3939
667.035	3880
667.517	3871
668	3912
668.483	3911
668.966	3857
669.449	3860
669.932	3867
670.415	3913
670.898	3872
671.381	3880
671.864	3886
672.347	3844
672.83	3864
673.313	3882
673.797	3872
674.28	3953
674.763	3943
675.247	3945
675.73	3917
676.213	3963
676.697	3980
677.18	3984
677.664	3991
678.147	3982
678.631	4009
679.114	4033
679.598	4014
680.082	4016
680.565	3998
681.049	3976
681.533	3988
682.017	4034
682.5	4007
682.984	4005
683.468	4010
683.952	3950
684.436	4024
684.92	3982
685.404	4006
685.888	4046
686.372	4008
686.856	4013
687.341	4057
687.825	4008
688.309	4036
688.793	4049
689.278	3990
689.762	4036
690.246	4009
690.731	4016
691.215	4039
691.7	3942
692.184	3969
692.669	3947
693.153	3948
693.638	3862
694.122	3854
694.607	3900
695.092	3827
695.577	3866
696.061	3796
696.546	3788
697.031	3754
697.516	3786
698.001	3783
698.486	3749
698.971	3810
699.456	3723
699.941	3726
700.426	3728
700.911	3786
701.396	3763
701.881	3794
702.366	3757
702.852	3729
703.337	3742
703.822	3753
704.308	3759
704.793	3809
705.278	3812
705.764	3812
706.249	3779
706.735	3777
707.22	3817
707.706	3769
708.191	3817
708.677	3799
709.163	3749
709.648	3746
710.134	3788
710.62	3739
711.106	3738
711.592	3790
712.077	3779
712.563	3697
713.049	3704
713.535	3776
714.021	3745
714.507	3726
714.993	3684
715.479	3729
715.966	3683
716.452	3678
716.938	3689
717.424	3570
717.91	3647
718.397	3638
718.883	3613
719.369	3624
719.856	3598
720.342	3668
720.829	3611
721.315	3631
721.802	3617
722.288	3645
722.775	3496
723.262	3394
723.748	3525
724.235	3489
724.722	3514
725.208	3437
725.695	3417
726.182	3401
726.669	3363
727.156	3386
727.643	3345
728.13	3345
728.617	3308
729.104	3318
729.591	3303
730.078	3344
730.565	3356
731.052	3327
731.539	3332
732.027	3299
732.514	3244
733.001	3264
733.488	3254
733.976	3247
734.463	3227
734.951	3235
735.438	3281
735.926	3246
736.413	3261
736.901	3223
737.388	3236
737.876	3234
738.364	3216
738.851	3228
739.339	3223
739.827	3257
740.314	3156
740.802	3180
741.29	3184
741.778	3142
742.266	3153
742.754	3154
743.242	3180
743.73	3100
744.218	3082
744.706	3054
745.194	3068
745.682	3043
746.17	3054
746.659	3046
747.147	2987
747.635	3018
748.123	3005
748.612	2958
749.1	2937
749.589	2971
750.077	2979
750.566	2965
751.054	2983
751.543	2990
752.031	2917
752.52	2902
753.008	2835
753.497	2846
753.986	2844
754.474	2828
754.963	2846
755.452	2783
755.941	2777
756.43	2777
756.919	2759
757.408	2739
757.896	2754
758.385	2743
758.875	2716
759.364	2716
759.853	2686
760.342	2644
760.831	2688
761.32	2662
761.809	2623
762.299	2628
762.788	2652
763.277	2635
763.767	2578
764.256	2566
764.745	2546
765.235	2599
765.724	2527
766.214	2568
766.703	2508
767.193	2461
767.683	2464
768.172	2416
768.662	2430
769.152	2408
769.641	2412
770.131	2364
770.621	2410
771.111	2373
771.601	2374
772.09	2366
772.58	2347
773.07	2347
773.56	2346
774.05	2290
774.54	2278
775.031	2265
775.521	2253
776.011	2253
776.501	2269
776.991	2221
777.482	2242
777.972	2173
778.462	2169
778.953	2184
779.443	2168
779.933	2173
780.424	2151
780.914	2166
781.405	2177
781.895	2167
782.386	2169
782.877	2146
783.367	2100
783.858	2089
784.349	2086
784.839	2073
785.33	2081
785.821	2058
786.312	2049
786.803	2062
787.293	2060
787.784	2007
788.275	1986
788.766	1960
789.257	1993
789.748	1952
790.24	1925
790.731	1919
791.222	1881
791.713	1867
792.204	1870
792.696	1822
793.187	1846
793.678	1828
794.169	1772
794.661	1812
795.152	1794
795.644	1771
796.135	1771
796.627	1787
797.118	1754
797.61	1732
798.101	1713
798.593	1733
799.085	1707
799.576	1714
800.068	1693
800.56	1691
801.052	1656
801.544	1650
802.035	1647
802.527	1619
803.019	1597
803.511	1587
804.003	1569
804.495	1572
804.987	1555
805.479	1518
805.971	1533
806.464	1525
806.956	1494
807.448	1490
807.94	1484
808.433	1478
808.925	1474
809.417	1454
809.91	1441
810.402	1401
810.894	1415
811.387	1415
811.879	1391
812.372	1405
812.865	1391
813.357	1377
813.85	1387
814.342	1372
814.835	1379
815.328	1367
815.821	1346
816.313	1350
816.806	1351
817.299	1345
817.792	1359
818.285	1335
818.778	1344
819.271	1345
819.764	1329
820.257	1333
820.75	1336
821.243	1342
821.736	1329
822.229	1338
822.722	1330
823.216	1358
