Data from lamp4helium_zwak_Subt2__20__420.txt Node

Date: Wed Apr 09 11:14:33 CEST 2025
User: fys-lab-0081
Spectrometer: S04999
Trigger mode: 0
Resolution mode: 1024 pixels
Integration Time (sec): 1.000000E-1
Scans to average: 1
Nonlinearity correction enabled: false
Boxcar width: 0
Baseline correction enabled: true
XAxis mode: Wavelengths
Number of Pixels in Spectrum: 1024
>>>>>Begin Spectral Data<<<<<
336.42	-2
336.877	1
337.334	3
337.792	2
338.249	3
338.706	0
339.164	3
339.621	3
340.079	7
340.536	5
340.994	4
341.452	2
341.909	5
342.367	4
342.825	-2
343.283	8
343.741	0
344.198	2
344.656	-1
345.114	1
345.572	-3
346.03	-3
346.488	1
346.947	4
347.405	12
347.863	0
348.321	5
348.779	6
349.238	5
349.696	4
350.154	-4
350.613	0
351.071	6
351.53	6
351.988	7
352.447	5
352.905	0
353.364	7
353.823	6
354.282	5
354.74	-5
355.199	2
355.658	8
356.117	2
356.576	4
357.035	5
357.494	6
357.953	1
358.412	9
358.871	7
359.33	7
359.789	4
360.249	9
360.708	3
361.167	7
361.626	11
362.086	7
362.545	9
363.005	10
363.464	4
363.924	8
364.383	7
364.843	9
365.303	8
365.762	14
366.222	9
366.682	11
367.142	14
367.601	9
368.061	9
368.521	8
368.981	11
369.441	14
369.901	15
370.361	14
370.821	11
371.282	12
371.742	14
372.202	18
372.662	17
373.123	11
373.583	13
374.043	18
374.504	16
374.964	12
375.425	12
375.885	12
376.346	24
376.806	22
377.267	14
377.728	21
378.188	19
378.649	18
379.11	26
379.571	17
380.032	19
380.493	19
380.954	28
381.414	18
381.876	19
382.337	16
382.798	27
383.259	28
383.72	24
384.181	23
384.642	27
385.104	30
385.565	31
386.026	33
386.488	30
386.949	36
387.411	36
387.872	39
388.334	44
388.795	44
389.257	42
389.719	38
390.181	44
390.642	40
391.104	45
391.566	45
392.028	43
392.49	53
392.952	46
393.414	51
393.876	51
394.338	51
394.8	51
395.262	47
395.724	58
396.186	56
396.648	60
397.111	58
397.573	63
398.035	54
398.498	60
398.96	60
399.423	58
399.885	61
400.348	65
400.81	68
401.273	63
401.736	64
402.198	73
402.661	73
403.124	69
403.587	76
404.049	78.5
404.512	81
404.975	77
405.438	79
405.901	84
406.364	81
406.827	84
407.29	81
407.754	81
408.217	89
408.68	86
409.143	87
409.607	94
410.07	92
410.533	90
410.997	90
411.46	97
411.924	98
412.387	100
412.851	101
413.314	103
413.778	100
414.242	102
414.705	110
415.169	110
415.633	106
416.097	103
416.561	110
417.024	113
417.488	111
417.952	114
418.416	111
418.88	106
419.344	109
419.809	120
420.273	119
420.737	119
421.201	123
421.665	124
422.13	124
422.594	132
423.059	132
423.523	134
423.987	131
424.452	139
424.916	139
425.381	145
425.846	138
426.31	152
426.775	154
427.24	154
427.704	152
428.169	153
428.634	158
429.099	160
429.564	158
430.029	154
430.494	156
430.959	155
431.424	154
431.889	167
432.354	165
432.819	162
433.284	173
433.75	174
434.215	178
434.68	179
435.146	179
435.611	186
436.077	196
436.542	197
437.008	204
437.473	204
437.939	205
438.404	210
438.87	215
439.336	215
439.801	216
440.267	220
440.733	220
441.199	224
441.665	223
442.131	233
442.596	223
443.062	232
443.529	245
443.995	244
444.461	255
444.927	260
445.393	262
445.859	272
446.325	280
446.792	301
447.258	290
447.724	304
448.191	318
448.657	315
449.124	324
449.59	322
450.057	340
450.523	343
450.99	353
451.457	348
451.923	356
452.39	353
452.857	366
453.324	357
453.791	365
454.257	374
454.724	373
455.191	367
455.658	374
456.125	386
456.592	379
457.059	390
457.527	392
457.994	405
458.461	410
458.928	414
459.396	413
459.863	430
460.33	424
460.798	432
461.265	438
461.732	430
462.2	448
462.668	438
463.135	445
463.603	429
464.07	453
464.538	434
465.006	450
465.474	448
465.941	445
466.409	449
466.877	438
467.345	456
467.813	447
468.281	462
468.749	463
469.217	458
469.685	467
470.153	477
470.621	481
471.09	480
471.558	504
472.026	506
472.494	519
472.963	524
473.431	536
473.9	553
474.368	559
474.837	571
475.305	573
475.774	586
476.242	598
476.711	599
477.18	625
477.648	614
478.117	616
478.586	622
479.055	626
479.524	632
479.993	629
480.462	632
480.93	627
481.399	631
481.869	636
482.338	631
482.807	648
483.276	638
483.745	637
484.214	658
484.684	673
485.153	673
485.622	681
486.092	700
486.561	683
487.031	712
487.5	720
487.97	727
488.439	750
488.909	770
489.378	805
489.848	796
490.318	810
490.787	846
491.257	860
491.727	857
492.197	873
492.667	879
493.137	889
493.607	898
494.077	904
494.547	889
495.017	892
495.487	906
495.957	927
496.427	914
496.897	911
497.368	923
497.838	915
498.308	932
498.779	938
499.249	938
499.719	955
500.19	965
500.66	976
501.131	980
501.602	998
502.072	997
502.543	1018
503.014	1056
503.484	1053
503.955	1080
504.426	1118
504.897	1132
505.368	1148
505.838	1175
506.309	1199
506.78	1233
507.251	1253
507.722	1280
508.194	1315
508.665	1336
509.136	1328
509.607	1368
510.078	1375
510.549	1382
511.021	1420
511.492	1426
511.964	1444
512.435	1464
512.906	1466
513.378	1475
513.849	1502
514.321	1499
514.793	1509
515.264	1540
515.736	1552
516.208	1585
516.679	1594
517.151	1617
517.623	1631
518.095	1649
518.567	1668
519.038	1701
519.51	1698
519.982	1711
520.454	1723
520.927	1751
521.399	1786
521.871	1802
522.343	1804
522.815	1828
523.287	1822
523.76	1841
524.232	1872
524.704	1882
525.177	1856
525.649	1855
526.122	1883
526.594	1847
527.067	1889
527.539	1920
528.012	1907
528.484	1895
528.957	1913
529.43	1908
529.903	1890
530.375	1951
530.848	1921
531.321	1950
531.794	1955
532.267	1988
532.74	1971
533.213	1953
533.686	1986
534.159	1982
534.632	2035
535.105	2048
535.578	2102
536.051	2106
536.525	2106
536.998	2095
537.471	2140
537.945	2129
538.418	2158
538.891	2140
539.365	2180
539.838	2205
540.312	2188
540.786	2196
541.259	2201
541.733	2238
542.206	2246
542.68	2218
543.154	2211
543.628	2213
544.101	2273
544.575	2234
545.049	2176
545.523	2224
545.997	2233
546.471	2242
546.945	2221
547.419	2265
547.893	2193
548.367	2240
548.842	2208
549.316	2235
549.79	2245
550.264	2228
550.739	2254
551.213	2248
551.687	2239
552.162	2265
552.636	2243
553.111	2248
553.585	2328
554.06	2298
554.534	2328
555.009	2318
555.484	2356
555.958	2403
556.433	2402
556.908	2441
557.383	2407
557.858	2477
558.333	2486
558.807	2463
559.282	2485
559.757	2553
560.232	2546
560.708	2502
561.183	2483
561.658	2532
562.133	2529
562.608	2505
563.083	2572
563.559	2507
564.034	2523
564.509	2520
564.985	2532
565.46	2501
565.936	2563
566.411	2554
566.887	2531
567.362	2552
567.838	2555
568.313	2590
568.789	2547
569.265	2540
569.74	2552
570.216	2538
570.692	2578
571.168	2575
571.644	2587
572.12	2588
572.596	2617
573.071	2635
573.547	2719
574.024	2738
574.5	2748
574.976	2749
575.452	2784
575.928	2814
576.404	2843
576.881	2951
577.357	2893
577.833	2898
578.31	2982
578.786	3020
579.262	3057
579.739	3005
580.215	3091
580.692	3084
581.169	3071
581.645	3073
582.122	3169
582.598	3175
583.075	3194
583.552	3200
584.029	3191
584.506	3146
584.982	3124
585.459	3206
585.936	3164
586.413	3205
586.89	3256
587.367	3218
587.844	3263
588.321	3243
588.799	3269
589.276	3244
589.753	3297
590.23	3325
590.707	3307
591.185	3309
591.662	3315
592.139	3345
592.617	3383
593.094	3360
593.572	3400
594.049	3443
594.527	3478
595.004	3484
595.482	3577
595.96	3560
596.437	3578
596.915	3666
597.393	3588
597.871	3665
598.349	3646
598.826	3721
599.304	3713
599.782	3778
600.26	3740
600.738	3827
601.216	3806
601.694	3834
602.173	3838
602.651	3863
603.129	3804
603.607	3855
604.085	3880
604.564	3875
605.042	3897
605.52	3863
605.999	3975
606.477	3854
606.956	3865
607.434	3904.5
607.913	3944
608.391	3941
608.87	3929
609.348	3858
609.827	3851
610.306	3890
610.785	3883
611.263	3889
611.742	3873
612.221	3813
612.7	3890
613.179	3917
613.658	3879
614.137	3932
614.616	3952
615.095	3886
615.574	3936
616.053	3980
616.532	3935
617.011	3946
617.491	3981
617.97	3973
618.449	4027
618.928	4054
619.408	4009
619.887	4050
620.367	4074
620.846	4122
621.326	4080
621.805	4172
622.285	4156
622.764	4182
623.244	4192
623.724	4204
624.203	4224
624.683	4166
625.163	4275
625.643	4262
626.123	4224
626.602	4316
627.082	4228
627.562	4217
628.042	4298
628.522	4241
629.002	4197
629.482	4240
629.963	4262
630.443	4228
630.923	4254
631.403	4268
631.883	4259
632.364	4258
632.844	4225
633.324	4259
633.805	4283
634.285	4227
634.766	4178
635.246	4177
635.727	4166
636.207	4178
636.688	4166
637.168	4175
637.649	4163
638.13	4120
638.611	4159
639.091	4150
639.572	4137
640.053	4125
640.534	4157
641.015	4147
641.496	4070
641.977	4152
642.458	4106
642.939	4115
643.42	4135
643.901	4133
644.382	4169
644.863	4136
645.345	4127
645.826	4118
646.307	4141
646.788	4202
647.27	4125
647.751	4140
648.233	4177
648.714	4079
649.196	4197
649.677	4185
650.159	4186
650.64	4140
651.122	4214
651.603	4142
652.085	4148
652.567	4166
653.049	4144
653.53	4144
654.012	4200
654.494	4112
654.976	4173
655.458	4175
655.94	4149
656.422	4207
656.904	4121
657.386	4066
657.868	4086
658.35	4048
658.833	4112
659.315	4130
659.797	4064
660.279	4058
660.762	4084
661.244	4047
661.726	3992
662.209	4012
662.691	4020
663.174	3937
663.656	3956
664.139	3944
664.621	3911
665.104	3889
665.587	3939
666.069	3964
666.552	3943
667.035	3883
667.517	3886
668	3917
668.483	3917
668.966	3867
669.449	3857
669.932	3868
670.415	3915
670.898	3879
671.381	3894
671.864	3892
672.347	3847
672.83	3866
673.313	3889
673.797	3880
674.28	3951
674.763	3946
675.247	3958
675.73	3911
676.213	3966
676.697	3986
677.18	3995
677.664	3994
678.147	3980
678.631	4026
679.114	4035
679.598	4013
680.082	4022
680.565	4007
681.049	3988
681.533	3991
682.017	4041
682.5	4015
682.984	4014
683.468	4011
683.952	3951
684.436	4029
684.92	3984
685.404	4004
685.888	4050
686.372	4020
686.856	4013
687.341	4062
687.825	4007
688.309	4036
688.793	4060
689.278	3996
689.762	4022
690.246	4016
690.731	4025
691.215	4042
691.7	3941
692.184	3970
692.669	3949
693.153	3954
693.638	3870
694.122	3862
694.607	3901
695.092	3841
695.577	3869
696.061	3795
696.546	3794
697.031	3755
697.516	3788
698.001	3782
698.486	3756
698.971	3801
699.456	3728
699.941	3739
700.426	3726
700.911	3793
701.396	3775
701.881	3796
702.366	3768
702.852	3735
703.337	3750
703.822	3756
704.308	3784
704.793	3818
705.278	3818
705.764	3820
706.249	3790
706.735	3790
707.22	3828
707.706	3770
708.191	3822
708.677	3809
709.163	3759
709.648	3757
710.134	3794
710.62	3749
711.106	3743
711.592	3790
712.077	3790
712.563	3696
713.049	3708
713.535	3782
714.021	3751
714.507	3731
714.993	3694
715.479	3736
715.966	3687
716.452	3697
716.938	3690
717.424	3574
717.91	3648
718.397	3630
718.883	3614
719.369	3629
719.856	3592
720.342	3672
720.829	3610
721.315	3629
721.802	3611
722.288	3646
722.775	3506
723.262	3408
723.748	3526
724.235	3498
724.722	3529
725.208	3435
725.695	3415
726.182	3405
726.669	3363
727.156	3391
727.643	3347
728.13	3346
728.617	3311
729.104	3325
729.591	3301
730.078	3355
730.565	3366
731.052	3320
731.539	3333
732.027	3308
732.514	3247
733.001	3270
733.488	3257
733.976	3256
734.463	3224
734.951	3242
735.438	3278
735.926	3252
736.413	3264
736.901	3230
737.388	3247
737.876	3233
738.364	3216
738.851	3234
739.339	3233
739.827	3259
740.314	3157
740.802	3191
741.29	3189
741.778	3143
742.266	3159
742.754	3161
743.242	3171
743.73	3102
744.218	3090
744.706	3054
745.194	3071
745.682	3042
746.17	3055
746.659	3063
747.147	2996
747.635	3020
748.123	3000
748.612	2961
749.1	2941
749.589	2973
750.077	2976
750.566	2983
751.054	2986
751.543	2994
752.031	2909
752.52	2902
753.008	2850
753.497	2859
753.986	2847
754.474	2835
754.963	2838
755.452	2791
755.941	2778
756.43	2780
756.919	2762
757.408	2743
757.896	2760
758.385	2747
758.875	2712
759.364	2716
759.853	2698
760.342	2639
760.831	2690
761.32	2658
761.809	2626
762.299	2640
762.788	2648
763.277	2636
763.767	2579
764.256	2578
764.745	2548
765.235	2599
765.724	2535
766.214	2568
766.703	2517
767.193	2460
767.683	2463
768.172	2420
768.662	2438
769.152	2408
769.641	2416
770.131	2362
770.621	2414
771.111	2383
771.601	2377
772.09	2360
772.58	2350
773.07	2357
773.56	2361
774.05	2297
774.54	2276
775.031	2261
775.521	2252
776.011	2248
776.501	2268
776.991	2228
777.482	2243
777.972	2182
778.462	2177
778.953	2190
779.443	2173
779.933	2170
780.424	2149
780.914	2173
781.405	2173
781.895	2172
782.386	2173
782.877	2146
783.367	2097
783.858	2084
784.349	2091
784.839	2080
785.33	2079
785.821	2064
786.312	2048
786.803	2063
787.293	2056
787.784	2017
788.275	1992
788.766	1956
789.257	1988
789.748	1957
790.24	1930
790.731	1922
791.222	1886
791.713	1868
792.204	1878
792.696	1826
793.187	1850
793.678	1832
794.169	1777
794.661	1811
795.152	1789
795.644	1776
796.135	1776
796.627	1782
797.118	1755
797.61	1738
798.101	1715
798.593	1745
799.085	1711
799.576	1715
800.068	1693
800.56	1697
801.052	1659
801.544	1653
802.035	1644
802.527	1613
803.019	1599
803.511	1591
804.003	1574
804.495	1575
804.987	1559
805.479	1520
805.971	1529
806.464	1527
806.956	1495
807.448	1496
807.94	1487
808.433	1480
808.925	1470
809.417	1454
809.91	1443
810.402	1399
810.894	1410
811.387	1415
811.879	1393
812.372	1409
812.865	1392
813.357	1382
813.85	1382
814.342	1372
814.835	1377
815.328	1374
815.821	1348
816.313	1348
816.806	1353
817.299	1344
817.792	1363
818.285	1335
818.778	1350
819.271	1346
819.764	1326
820.257	1336
820.75	1341
821.243	1346
821.736	1329
822.229	1336
822.722	1324
823.216	1354
