Data from lamp4helium_zwak_Subt4__25__25.txt Node

Date: Wed Apr 09 09:32:57 CEST 2025
User: fys-lab-0081
Spectrometer: S04999
Trigger mode: 0
Resolution mode: 1024 pixels
Integration Time (sec): 1.000000E-1
Scans to average: 1
Nonlinearity correction enabled: false
Boxcar width: 0
Baseline correction enabled: true
XAxis mode: Wavelengths
Number of Pixels in Spectrum: 1024
>>>>>Begin Spectral Data<<<<<
336.42	-2
336.877	1
337.334	2
337.792	1
338.249	3
338.706	-4
339.164	1
339.621	0
340.079	4
340.536	6
340.994	5
341.452	-4
341.909	4
342.367	-5
342.825	1
343.283	3
343.741	0
344.198	5
344.656	0
345.114	-1
345.572	4
346.03	8
346.488	7
346.947	1
347.405	4
347.863	6
348.321	6
348.779	0
349.238	5
349.696	2
350.154	3
350.613	1
351.071	2
351.53	7
351.988	5
352.447	6
352.905	3
353.364	-2
353.823	1
354.282	4
354.74	0
355.199	5
355.658	6
356.117	9
356.576	8
357.035	4
357.494	5
357.953	11
358.412	10
358.871	0
359.33	4
359.789	9
360.249	3
360.708	7
361.167	7
361.626	7
362.086	6
362.545	10
363.005	15
363.464	3
363.924	9
364.383	12
364.843	10
365.303	7
365.762	10
366.222	7
366.682	9
367.142	10
367.601	9
368.061	10
368.521	10
368.981	7
369.441	15
369.901	21
370.361	10
370.821	13
371.282	12
371.742	13
372.202	14
372.662	18
373.123	12
373.583	9
374.043	12
374.504	10
374.964	16
375.425	14
375.885	15
376.346	18
376.806	15
377.267	20
377.728	16
378.188	17
378.649	18
379.11	22
379.571	20
380.032	19
380.493	15
380.954	24
381.414	19
381.876	21
382.337	23
382.798	27
383.259	29
383.72	24
384.181	26
384.642	26
385.104	30
385.565	34
386.026	28
386.488	32
386.949	30
387.411	31
387.872	38
388.334	39
388.795	34
389.257	42
389.719	33
390.181	38
390.642	43
391.104	38
391.566	35
392.028	45
392.49	41
392.952	46
393.414	44
393.876	46
394.338	44
394.8	41
395.262	45
395.724	51
396.186	52
396.648	50
397.111	50
397.573	55
398.035	54
398.498	52
398.96	51
399.423	52
399.885	60
400.348	58
400.81	67
401.273	56
401.736	63
402.198	58
402.661	64
403.124	66
403.587	64
404.049	69
404.512	74
404.975	76
405.438	73
405.901	69
406.364	76
406.827	71
407.29	81
407.754	77
408.217	77
408.68	73
409.143	77
409.607	84
410.07	78
410.533	80
410.997	84
411.46	77
411.924	78
412.387	83
412.851	87
413.314	91
413.778	92
414.242	92
414.705	97
415.169	95
415.633	93
416.097	95
416.561	101
417.024	104
417.488	100
417.952	97
418.416	105
418.88	105
419.344	101
419.809	102
420.273	103
420.737	102
421.201	96
421.665	106
422.13	109
422.594	107
423.059	116
423.523	112
423.987	114
424.452	119
424.916	128
425.381	127
425.846	125
426.31	130
426.775	127
427.24	141
427.704	126
428.169	134
428.634	132
429.099	132
429.564	138
430.029	142
430.494	135
430.959	142
431.424	133
431.889	142
432.354	139
432.819	138
433.284	146
433.75	146
434.215	153
434.68	151
435.146	156
435.611	166
436.077	166
436.542	169
437.008	180
437.473	181
437.939	187
438.404	190
438.87	190
439.336	182
439.801	188
440.267	186
440.733	196
441.199	200
441.665	190
442.131	207
442.596	196
443.062	199
443.529	210
443.995	216
444.461	215
444.927	233
445.393	226
445.859	238
446.325	243
446.792	260
447.258	259
447.724	267
448.191	271
448.657	278
449.124	284
449.59	283
450.057	301
450.523	297
450.99	306
451.457	305
451.923	312
452.39	312
452.857	319
453.324	312
453.791	326
454.257	321
454.724	326
455.191	330
455.658	325
456.125	340
456.592	336
457.059	338
457.527	341
457.994	351
458.461	353
458.928	365
459.396	365
459.863	375
460.33	370
460.798	376
461.265	380
461.732	371
462.2	389
462.668	387
463.135	394
463.603	387
464.07	387
464.538	383
465.006	392
465.474	385
465.941	389
466.409	394
466.877	384
467.345	401
467.813	400
468.281	400
468.749	400
469.217	401
469.685	406
470.153	415
470.621	412
471.09	420
471.558	438
472.026	439
472.494	449
472.963	455
473.431	471
473.9	478
474.368	486
474.837	495
475.305	499
475.774	512
476.242	530
476.711	531
477.18	541
477.648	543
478.117	548
478.586	540
479.055	540
479.524	546
479.993	551
480.462	550
480.93	556
481.399	552
481.869	560
482.338	554
482.807	564
483.276	557
483.745	557
484.214	578
484.684	593
485.153	593
485.622	587
486.092	618
486.561	599
487.031	621
487.5	633
487.97	644
488.439	655
488.909	679
489.378	695
489.848	696
490.318	717
490.787	736
491.257	752
491.727	751
492.197	772
492.667	760
493.137	774
493.607	777
494.077	780
494.547	779
495.017	785
495.487	800
495.957	817
496.427	796
496.897	802
497.368	811
497.838	809
498.308	828
498.779	834
499.249	840
499.719	850
500.19	862
500.66	862
501.131	865
501.602	881
502.072	889
502.543	899
503.014	937
503.484	936
503.955	963
504.426	997
504.897	1011
505.368	1030
505.838	1044
506.309	1075
506.78	1104
507.251	1131
507.722	1141
508.194	1169
508.665	1193
509.136	1188
509.607	1219
510.078	1235
510.549	1235
511.021	1271
511.492	1287
511.964	1302
512.435	1330
512.906	1320
513.378	1335
513.849	1357
514.321	1366
514.793	1375
515.264	1387
515.736	1392
516.208	1427
516.679	1447
517.151	1462
517.623	1473
518.095	1502
518.567	1511
519.038	1543
519.51	1552
519.982	1577
520.454	1588
520.927	1601
521.399	1622
521.871	1653
522.343	1662
522.815	1679
523.287	1662
523.76	1689
524.232	1726
524.704	1730
525.177	1696
525.649	1704
526.122	1739
526.594	1722
527.067	1752
527.539	1764
528.012	1751
528.484	1756
528.957	1760
529.43	1760
529.903	1753
530.375	1832
530.848	1781
531.321	1817
531.794	1813
532.267	1850
532.74	1829
533.213	1828
533.686	1858
534.159	1856
534.632	1913
535.105	1911
535.578	1941
536.051	1933
536.525	1948
536.998	1969
537.471	2013
537.945	1958
538.418	1992
538.891	2011
539.365	2038
539.838	2059
540.312	2052
540.786	2077
541.259	2056
541.733	2093
542.206	2097
542.68	2086
543.154	2082
543.628	2097
544.101	2142
544.575	2128
545.049	2082
545.523	2125
545.997	2118
546.471	2131
546.945	2109
547.419	2160
547.893	2080
548.367	2116
548.842	2094
549.316	2117
549.79	2144
550.264	2120
550.739	2170
551.213	2151
551.687	2145
552.162	2173
552.636	2156
553.111	2156
553.585	2232
554.06	2202
554.534	2257
555.009	2246
555.484	2270
555.958	2313
556.433	2317
556.908	2318
557.383	2290
557.858	2335
558.333	2351
558.807	2353
559.282	2362
559.757	2421
560.232	2429
560.708	2392
561.183	2394
561.658	2433
562.133	2428
562.608	2417
563.083	2470
563.559	2412
564.034	2429
564.509	2461
564.985	2483
565.46	2447
565.936	2488
566.411	2483
566.887	2460
567.362	2467
567.838	2453
568.313	2483
568.789	2443
569.265	2468
569.74	2496
570.216	2461
570.692	2499
571.168	2506
571.644	2533
572.12	2529
572.596	2558
573.071	2566
573.547	2660
574.024	2655
574.5	2671
574.976	2688
575.452	2753
575.928	2767
576.404	2753
576.881	2851
577.357	2809
577.833	2857
578.31	2923
578.786	2933
579.262	2979
579.739	2934
580.215	3018
580.692	3043
581.169	3023
581.645	3031
582.122	3120
582.598	3078
583.075	3052
583.552	3067
584.029	3114
584.506	3120
584.982	3082
585.459	3163
585.936	3149
586.413	3195
586.89	3236
587.367	3193
587.844	3237
588.321	3233
588.799	3221
589.276	3175
589.753	3204
590.23	3244
590.707	3247
591.185	3244
591.662	3239
592.139	3277
592.617	3356
593.094	3347
593.572	3374
594.049	3377
594.527	3398
595.004	3438
595.482	3552
595.96	3489
596.437	3497
596.915	3589
597.393	3571
597.871	3668
598.349	3605
598.826	3663
599.304	3676
599.782	3772
600.26	3747
600.738	3808
601.216	3760
601.694	3774
602.173	3794
602.651	3809
603.129	3757
603.607	3799
604.085	3808
604.564	3797
605.042	3823
605.52	3783
605.999	3900
606.477	3832
606.956	3880
607.434	3900.5
607.913	3921
608.391	3886
608.87	3874
609.348	3845
609.827	3858
610.306	3890
610.785	3859
611.263	3880
611.742	3875
612.221	3835
612.7	3884
613.179	3910
613.658	3862
614.137	3959
614.616	4000
615.095	3912
615.574	3956
616.053	3979
616.532	3934
617.011	3962
617.491	3971
617.97	3960
618.449	4041
618.928	4099
619.408	4098
619.887	4103
620.367	4099
620.846	4170
621.326	4158
621.805	4253
622.285	4229
622.764	4240
623.244	4237
623.724	4237
624.203	4250
624.683	4175
625.163	4273
625.643	4283
626.123	4249
626.602	4342
627.082	4237
627.562	4215
628.042	4323
628.522	4315
629.002	4284
629.482	4267
629.963	4217
630.443	4169
630.923	4192
631.403	4236
631.883	4233
632.364	4266
632.844	4219
633.324	4247
633.805	4252
634.285	4218
634.766	4215
635.246	4216
635.727	4209
636.207	4196
636.688	4195
637.168	4158
637.649	4108
638.13	4066
638.611	4105
639.091	4124
639.572	4126
640.053	4094
640.534	4123
641.015	4132
641.496	4140
641.977	4248
642.458	4183
642.939	4157
643.42	4143
643.901	4147
644.382	4225
644.863	4236
645.345	4220
645.826	4223
646.307	4199
646.788	4225
647.27	4133
647.751	4127
648.233	4165
648.714	4106
649.196	4230
649.677	4204
650.159	4212
650.64	4165
651.122	4215
651.603	4145
652.085	4165
652.567	4186
653.049	4163
653.53	4158
654.012	4220
654.494	4109
654.976	4127
655.458	4097
655.94	4075
656.422	4116
656.904	4044
657.386	3989
657.868	4006
658.35	4013
658.833	4065
659.315	4090
659.797	4041
660.279	4027
660.762	4063
661.244	4036
661.726	3968
662.209	3957
662.691	3911
663.174	3826
663.656	3841
664.139	3853
664.621	3840
665.104	3812
665.587	3862
666.069	3887
666.552	3864
667.035	3847
667.517	3868
668	3880
668.483	3841
668.966	3778
669.449	3812
669.932	3855
670.415	3889
670.898	3842
671.381	3832
671.864	3872
672.347	3842
672.83	3825
673.313	3803
673.797	3784
674.28	3817
674.763	3800
675.247	3792
675.73	3747
676.213	3796
676.697	3824
677.18	3793
677.664	3777
678.147	3789
678.631	3839
679.114	3852
679.598	3848
680.082	3856
680.565	3818
681.049	3790
681.533	3803
682.017	3831
682.5	3831
682.984	3839
683.468	3832
683.952	3739
684.436	3787
684.92	3737
685.404	3763
685.888	3764
686.372	3715
686.856	3737
687.341	3783
687.825	3749
688.309	3765
688.793	3751
689.278	3674
689.762	3676
690.246	3649
690.731	3665
691.215	3686
691.7	3571
692.184	3592
692.669	3560
693.153	3584
693.638	3548
694.122	3524
694.607	3548
695.092	3499
695.577	3559
696.061	3492
696.546	3508
697.031	3493
697.516	3493
698.001	3487
698.486	3464
698.971	3517
699.456	3469
699.941	3466
700.426	3441
700.911	3454
701.396	3378
701.881	3399
702.366	3387
702.852	3392
703.337	3399
703.822	3353
704.308	3333
704.793	3344
705.278	3354
705.764	3395
706.249	3386
706.735	3372
707.22	3405
707.706	3351
708.191	3407
708.677	3411
709.163	3366
709.648	3352
710.134	3380
710.62	3309
711.106	3298
711.592	3328
712.077	3310
712.563	3225
713.049	3193
713.535	3232
714.021	3188
714.507	3161
714.993	3145
715.479	3202
715.966	3188
716.452	3206
716.938	3211
717.424	3115
717.91	3157
718.397	3124
718.883	3095
719.369	3077
719.856	3026
720.342	3032
720.829	2967
721.315	2967
721.802	2946
722.288	2967
722.775	2860
723.262	2806
723.748	2892
724.235	2863
724.722	2879
725.208	2836
725.695	2842
726.182	2831
726.669	2791
727.156	2806
727.643	2780
728.13	2772
728.617	2756
729.104	2775
729.591	2743
730.078	2741
730.565	2729
731.052	2687
731.539	2692
732.027	2690
732.514	2677
733.001	2709
733.488	2670
733.976	2629
734.463	2594
734.951	2575
735.438	2600
735.926	2570
736.413	2584
736.901	2577
737.388	2596
737.876	2585
738.364	2569
738.851	2574
739.339	2566
739.827	2606
740.314	2506
740.802	2516
741.29	2509
741.778	2449
742.266	2450
742.754	2442
743.242	2461
743.73	2407
744.218	2408
744.706	2370
745.194	2384
745.682	2373
746.17	2379
746.659	2382
747.147	2310
747.635	2322
748.123	2301
748.612	2250
749.1	2250
749.589	2295
750.077	2280
750.566	2263
751.054	2265
751.543	2268
752.031	2207
752.52	2192
753.008	2152
753.497	2160
753.986	2136
754.474	2110
754.963	2147
755.452	2112
755.941	2097
756.43	2087
756.919	2088
757.408	2078
757.896	2069
758.385	2058
758.875	2034
759.364	2033
759.853	2006
760.342	1962
760.831	2001
761.32	1963
761.809	1922
762.299	1932
762.788	1939
763.277	1914
763.767	1889
764.256	1884
764.745	1866
765.235	1884
765.724	1821
766.214	1843
766.703	1837
767.193	1798
767.683	1783
768.172	1741
768.662	1751
769.152	1749
769.641	1772
770.131	1729
770.621	1750
771.111	1729
771.601	1722
772.09	1716
772.58	1687
773.07	1679
773.56	1684
774.05	1655
774.54	1660
775.031	1650
775.521	1647
776.011	1638
776.501	1641
776.991	1597
777.482	1601
777.972	1573
778.462	1563
778.953	1579
779.443	1564
779.933	1539
780.424	1517
780.914	1525
781.405	1534
781.895	1523
782.386	1518
782.877	1503
783.367	1451
783.858	1432
784.349	1426
784.839	1420
785.33	1419
785.821	1412
786.312	1390
786.803	1384
787.293	1371
787.784	1347
788.275	1342
788.766	1323
789.257	1333
789.748	1300
790.24	1288
790.731	1306
791.222	1299
791.713	1289
792.204	1288
792.696	1249
793.187	1273
793.678	1262
794.169	1242
794.661	1257
795.152	1236
795.644	1215
796.135	1208
796.627	1212
797.118	1192
797.61	1191
798.101	1182
798.593	1199
799.085	1181
799.576	1191
800.068	1172
800.56	1173
801.052	1136
801.544	1130
802.035	1123
802.527	1109
803.019	1092
803.511	1073
804.003	1072
804.495	1068
804.987	1052
805.479	1028
805.971	1045
806.464	1049
806.956	1013
807.448	1017
807.94	1013
808.433	1008
808.925	1012
809.417	997
809.91	989
810.402	972
810.894	978
811.387	978
811.879	957
812.372	953
812.865	928
813.357	928
813.85	920
814.342	924
814.835	924
815.328	926
815.821	915
816.313	911
816.806	912
817.299	904
817.792	911
818.285	902
818.778	912
819.271	913
819.764	898
820.257	901
820.75	890
821.243	882
821.736	875
822.229	879
822.722	882
823.216	897
