Data from lamp4bck_dubbel_Subt2__64__1064.txt Node

Date: Wed Apr 09 12:21:21 CEST 2025
User: fys-lab-0081
Spectrometer: S04999
Trigger mode: 0
Resolution mode: 1024 pixels
Integration Time (sec): 1.000000E-1
Scans to average: 1
Nonlinearity correction enabled: false
Boxcar width: 0
Baseline correction enabled: true
XAxis mode: Wavelengths
Number of Pixels in Spectrum: 1024
>>>>>Begin Spectral Data<<<<<
336.42	1
336.877	8
337.334	3
337.792	3
338.249	5
338.706	3
339.164	4
339.621	5
340.079	6
340.536	6
340.994	3
341.452	5
341.909	5
342.367	2
342.825	3
343.283	6
343.741	4
344.198	6
344.656	4
345.114	3
345.572	8
346.03	1
346.488	1
346.947	5
347.405	7
347.863	2
348.321	3
348.779	11
349.238	4
349.696	3
350.154	1
350.613	2
351.071	3
351.53	10
351.988	9
352.447	5
352.905	1
353.364	0
353.823	6
354.282	5
354.74	1
355.199	6
355.658	11
356.117	3
356.576	4
357.035	9
357.494	6
357.953	7
358.412	7
358.871	9
359.33	7
359.789	3
360.249	5
360.708	11
361.167	10
361.626	7
362.086	3
362.545	11
363.005	8
363.464	7
363.924	6
364.383	10
364.843	7
365.303	9
365.762	11
366.222	9
366.682	6
367.142	9
367.601	9
368.061	8
368.521	8
368.981	8
369.441	16
369.901	12
370.361	9
370.821	9
371.282	10
371.742	12
372.202	10
372.662	11
373.123	13
373.583	15
374.043	20
374.504	12
374.964	12
375.425	14
375.885	12
376.346	13
376.806	16
377.267	16
377.728	20
378.188	18
378.649	13
379.11	20
379.571	11
380.032	20
380.493	17
380.954	22
381.414	17
381.876	21
382.337	18
382.798	19
383.259	23
383.72	23
384.181	22
384.642	23
385.104	28
385.565	24
386.026	32
386.488	31
386.949	30
387.411	28
387.872	37
388.334	33
388.795	32
389.257	31
389.719	31
390.181	34
390.642	37
391.104	36
391.566	36
392.028	42
392.49	45
392.952	40
393.414	42
393.876	47
394.338	42
394.8	45
395.262	39
395.724	49
396.186	49
396.648	49
397.111	44
397.573	47
398.035	47
398.498	49
398.96	53
399.423	50
399.885	48
400.348	50
400.81	55
401.273	48
401.736	49
402.198	60
402.661	60
403.124	55
403.587	65
404.049	64
404.512	63
404.975	65
405.438	67
405.901	72
406.364	70
406.827	71
407.29	69
407.754	67
408.217	67
408.68	63
409.143	69
409.607	76
410.07	72
410.533	71
410.997	79
411.46	79
411.924	84
412.387	81
412.851	78
413.314	83
413.778	82
414.242	78
414.705	87
415.169	86
415.633	93
416.097	84
416.561	87
417.024	93
417.488	95
417.952	92
418.416	84
418.88	83
419.344	87
419.809	95
420.273	92
420.737	91
421.201	90
421.665	95
422.13	98
422.594	104
423.059	99
423.523	103
423.987	103
424.452	108
424.916	109
425.381	115
425.846	114
426.31	122
426.775	122
427.24	120
427.704	119
428.169	123
428.634	126
429.099	119
429.564	121
430.029	126
430.494	122
430.959	124
431.424	123
431.889	132
432.354	130
432.819	123
433.284	135
433.75	130
434.215	141
434.68	138
435.146	134
435.611	148
436.077	152
436.542	153
437.008	163
437.473	163
437.939	160
438.404	165
438.87	172
439.336	165
439.801	168
440.267	169
440.733	179
441.199	175
441.665	176
442.131	180
442.596	175
443.062	183
443.529	190
443.995	188
444.461	187
444.927	197
445.393	202
445.859	204
446.325	209
446.792	225
447.258	223
447.724	233
448.191	239
448.657	245
449.124	245
449.59	248
450.057	263
450.523	265
450.99	270
451.457	273
451.923	277
452.39	273
452.857	280
453.324	274
453.791	286
454.257	292
454.724	288
455.191	284
455.658	287
456.125	293
456.592	289
457.059	299
457.527	294
457.994	307
458.461	310
458.928	313
459.396	312
459.863	326
460.33	322
460.798	326
461.265	331
461.732	333
462.2	337
462.668	339
463.135	343
463.603	334
464.07	354
464.538	338
465.006	344
465.474	343
465.941	336
466.409	341
466.877	335
467.345	341
467.813	334
468.281	344
468.749	347
469.217	341
469.685	351
470.153	358
470.621	355
471.09	357
471.558	371
472.026	377
472.494	382
472.963	384
473.431	394
473.9	404
474.368	412
474.837	417
475.305	432
475.774	438
476.242	448
476.711	452
477.18	468
477.648	462
478.117	465
478.586	472
479.055	464
479.524	469
479.993	470
480.462	466
480.93	470
481.399	476
481.869	475
482.338	465
482.807	479
483.276	478
483.745	471
484.214	479
484.684	493
485.153	489
485.622	492
486.092	499
486.561	494
487.031	510
487.5	514
487.97	513
488.439	530
488.909	538
489.378	558
489.848	564
490.318	580
490.787	611
491.257	618
491.727	624
492.197	636
492.667	639
493.137	641
493.607	646
494.077	656
494.547	642
495.017	640
495.487	662
495.957	671
496.427	656
496.897	661
497.368	670
497.838	661
498.308	663
498.779	668
499.249	680
499.719	679
500.19	693
500.66	688
501.131	693
501.602	708
502.072	709
502.543	716
503.014	738
503.484	730
503.955	745
504.426	765
504.897	770
505.368	781
505.838	801
506.309	811
506.78	849
507.251	872
507.722	881
508.194	905
508.665	927
509.136	921
509.607	948
510.078	973
510.549	982
511.021	1007
511.492	1008
511.964	1025
512.435	1038
512.906	1034
513.378	1045
513.849	1060
514.321	1062
514.793	1060
515.264	1076
515.736	1085
516.208	1095
516.679	1097
517.151	1118
517.623	1126
518.095	1133
518.567	1146
519.038	1183
519.51	1183
519.982	1190
520.454	1213
520.927	1234
521.399	1247
521.871	1259
522.343	1271
522.815	1299
523.287	1293
523.76	1290
524.232	1320
524.704	1327
525.177	1297
525.649	1296
526.122	1320
526.594	1290
527.067	1315
527.539	1328
528.012	1328
528.484	1328
528.957	1327
529.43	1330
529.903	1331
530.375	1362
530.848	1319
531.321	1342
531.794	1352
532.267	1379
532.74	1351
533.213	1358
533.686	1383
534.159	1375
534.632	1398
535.105	1401
535.578	1436
536.051	1434
536.525	1418
536.998	1423
537.471	1451
537.945	1417
538.418	1430
538.891	1438
539.365	1468
539.838	1470
540.312	1467
540.786	1477
541.259	1497
541.733	1520
542.206	1512
542.68	1494
543.154	1509
543.628	1520
544.101	1548
544.575	1547
545.049	1521
545.523	1558
545.997	1552
546.471	1554
546.945	1553
547.419	1577
547.893	1494
548.367	1514
548.842	1505
549.316	1508
549.79	1525
550.264	1492
550.739	1514
551.213	1525
551.687	1507
552.162	1508
552.636	1509
553.111	1506
553.585	1545
554.06	1511
554.534	1550
555.009	1556
555.484	1585
555.958	1587
556.433	1605
556.908	1642
557.383	1629
557.858	1658
558.333	1658
558.807	1644
559.282	1668
559.757	1697
560.232	1680
560.708	1649
561.183	1650
561.658	1659
562.133	1646
562.608	1631
563.083	1692
563.559	1658
564.034	1660
564.509	1663
564.985	1679
565.46	1678
565.936	1702
566.411	1693
566.887	1680
567.362	1711
567.838	1708
568.313	1723
568.789	1708
569.265	1719
569.74	1728
570.216	1711
570.692	1724
571.168	1715
571.644	1736
572.12	1715
572.596	1718
573.071	1695
573.547	1747
574.024	1772
574.5	1760
574.976	1757
575.452	1791
575.928	1815
576.404	1818
576.881	1861
577.357	1832
577.833	1858
578.31	1913
578.786	1934
579.262	1967
579.739	1948
580.215	2028
580.692	2035
581.169	2008
581.645	2015
582.122	2089
582.598	2085
583.075	2088
583.552	2085
584.029	2090
584.506	2092
584.982	2074
585.459	2101
585.936	2043
586.413	2068
586.89	2124
587.367	2084
587.844	2099
588.321	2061
588.799	2076
589.276	2069
589.753	2100
590.23	2106
590.707	2089
591.185	2100
591.662	2101
592.139	2123
592.617	2137
593.094	2148
593.572	2168
594.049	2207
594.527	2216
595.004	2212
595.482	2275
595.96	2287
596.437	2306
596.915	2360
597.393	2320
597.871	2392
598.349	2363
598.826	2407
599.304	2394
599.782	2423
600.26	2379
600.738	2431
601.216	2414
601.694	2414
602.173	2407
602.651	2443
603.129	2434
603.607	2450
604.085	2453
604.564	2435
605.042	2437
605.52	2436
605.999	2505
606.477	2451
606.956	2455
607.434	2485.5
607.913	2516
608.391	2533
608.87	2528
609.348	2496
609.827	2520
610.306	2553
610.785	2583
611.263	2588
611.742	2558
612.221	2534
612.7	2583
613.179	2591
613.658	2545
614.137	2551
614.616	2562
615.095	2517
615.574	2551
616.053	2542
616.532	2496
617.011	2513
617.491	2519
617.97	2523
618.449	2546
618.928	2560
619.408	2546
619.887	2566
620.367	2591
620.846	2617
621.326	2613
621.805	2650
622.285	2652
622.764	2699
623.244	2718
623.724	2739
624.203	2763
624.683	2728
625.163	2808
625.643	2828
626.123	2805
626.602	2854
627.082	2785
627.562	2805
628.042	2883
628.522	2863
629.002	2837
629.482	2833
629.963	2834
630.443	2812
630.923	2818
631.403	2819
631.883	2786
632.364	2781
632.844	2775
633.324	2802
633.805	2810
634.285	2769
634.766	2726
635.246	2731
635.727	2756
636.207	2756
636.688	2761
637.168	2744
637.649	2714
638.13	2696
638.611	2731
639.091	2746
639.572	2737
640.053	2725
640.534	2753
641.015	2783
641.496	2746
641.977	2799
642.458	2762
642.939	2763
643.42	2782
643.901	2802
644.382	2827
644.863	2813
645.345	2789
645.826	2782
646.307	2791
646.788	2851
647.27	2801
647.751	2797
648.233	2803
648.714	2723
649.196	2800
649.677	2792
650.159	2776
650.64	2729
651.122	2765
651.603	2719
652.085	2765
652.567	2784
653.049	2756
653.53	2738
654.012	2767
654.494	2720
654.976	2770
655.458	2781
655.94	2773
656.422	2824
656.904	2799
657.386	2787
657.868	2811
658.35	2808
658.833	2833
659.315	2831
659.797	2794
660.279	2808
660.762	2842
661.244	2822
661.726	2775
662.209	2757
662.691	2750
663.174	2694
663.656	2718
664.139	2716
664.621	2673
665.104	2633
665.587	2648
666.069	2667
666.552	2669
667.035	2642
667.517	2637
668	2644
668.483	2632
668.966	2625
669.449	2630
669.932	2632
670.415	2659
670.898	2622
671.381	2614
671.864	2625
672.347	2617
672.83	2641
673.313	2664
673.797	2629
674.28	2670
674.763	2662
675.247	2692
675.73	2703
676.213	2723
676.697	2747
677.18	2746
677.664	2757
678.147	2773
678.631	2791
679.114	2814
679.598	2784
680.082	2783
680.565	2766
681.049	2762
681.533	2771
682.017	2808
682.5	2801
682.984	2797
683.468	2766
683.952	2717
684.436	2773
684.92	2734
685.404	2742
685.888	2762
686.372	2726
686.856	2725
687.341	2774
687.825	2762
688.309	2783
688.793	2783
689.278	2722
689.762	2748
690.246	2753
690.731	2784
691.215	2803
691.7	2737
692.184	2764
692.669	2758
693.153	2770
693.638	2747
694.122	2759
694.607	2786
695.092	2743
695.577	2755
696.061	2705
696.546	2717
697.031	2712
697.516	2748
698.001	2733
698.486	2688
698.971	2704
699.456	2652
699.941	2672
700.426	2684
700.911	2705
701.396	2677
701.881	2677
702.366	2643
702.852	2626
703.337	2672
703.822	2675
704.308	2669
704.793	2667
705.278	2653
705.764	2644
706.249	2625
706.735	2661
707.22	2685
707.706	2649
708.191	2675
708.677	2665
709.163	2660
709.648	2686
710.134	2721
710.62	2686
711.106	2666
711.592	2678
712.077	2661
712.563	2602
713.049	2624
713.535	2689
714.021	2687
714.507	2682
714.993	2664
715.479	2711
715.966	2689
716.452	2719
716.938	2744
717.424	2672
717.91	2723
718.397	2687
718.883	2657
719.369	2671
719.856	2671
720.342	2731
720.829	2698
721.315	2697
721.802	2675
722.288	2690
722.775	2603
723.262	2539
723.748	2660
724.235	2637
724.722	2658
725.208	2578
725.695	2574
726.182	2577
726.669	2550
727.156	2588
727.643	2547
728.13	2551
728.617	2512
729.104	2496
729.591	2476
730.078	2511
730.565	2527
731.052	2497
731.539	2487
732.027	2455
732.514	2424
733.001	2450
733.488	2451
733.976	2451
734.463	2456
734.951	2457
735.438	2486
735.926	2452
736.413	2466
736.901	2454
737.388	2501
737.876	2509
738.364	2482
738.851	2477
739.339	2469
739.827	2494
740.314	2427
740.802	2473
741.29	2504
741.778	2487
742.266	2495
742.754	2490
743.242	2499
743.73	2465
744.218	2475
744.706	2462
745.194	2495
745.682	2470
746.17	2472
746.659	2446
747.147	2384
747.635	2397
748.123	2401
748.612	2391
749.1	2385
749.589	2398
750.077	2375
750.566	2346
751.054	2364
751.543	2386
752.031	2349
752.52	2375
753.008	2334
753.497	2328
753.986	2319
754.474	2295
754.963	2324
755.452	2315
755.941	2312
756.43	2315
756.919	2309
757.408	2266
757.896	2262
758.385	2257
758.875	2243
759.364	2246
759.853	2250
760.342	2229
760.831	2273
761.32	2242
761.809	2188
762.299	2203
762.788	2221
763.277	2235
763.767	2215
764.256	2224
764.745	2187
765.235	2202
765.724	2147
766.214	2176
766.703	2182
767.193	2180
767.683	2217
768.172	2181
768.662	2203
769.152	2191
769.641	2195
770.131	2151
770.621	2195
771.111	2188
771.601	2208
772.09	2189
772.58	2141
773.07	2128
773.56	2131
774.05	2089
774.54	2100
775.031	2099
775.521	2105
776.011	2101
776.501	2114
776.991	2048
777.482	2056
777.972	2008
778.462	2035
778.953	2066
779.443	2072
779.933	2058
780.424	2019
780.914	2015
781.405	2011
781.895	1988
782.386	1990
782.877	1997
783.367	1972
783.858	1961
784.349	1953
784.839	1922
785.33	1914
785.821	1898
786.312	1886
786.803	1909
787.293	1932
787.784	1911
788.275	1885
788.766	1857
789.257	1881
789.748	1833
790.24	1820
790.731	1853
791.222	1844
791.713	1863
792.204	1874
792.696	1822
793.187	1834
793.678	1821
794.169	1779
794.661	1838
795.152	1833
795.644	1843
796.135	1844
796.627	1840
797.118	1795
797.61	1763
798.101	1751
798.593	1779
799.085	1753
799.576	1778
800.068	1755
800.56	1767
801.052	1713
801.544	1693
802.035	1693
802.527	1672
803.019	1665
803.511	1658
804.003	1668
804.495	1665
804.987	1648
805.479	1591
805.971	1582
806.464	1580
806.956	1539
807.448	1546
807.94	1553
808.433	1556
808.925	1556
809.417	1535
809.91	1520
810.402	1487
810.894	1499
811.387	1520
811.879	1508
812.372	1528
812.865	1519
813.357	1509
813.85	1499
814.342	1482
814.835	1489
815.328	1489
815.821	1494
816.313	1516
816.806	1546
817.299	1537
817.792	1560
818.285	1533
818.778	1549
819.271	1545
819.764	1534
820.257	1553
820.75	1565
821.243	1580
821.736	1570
822.229	1584
822.722	1566
823.216	1593
