Data from lamp4bck_dubbel_Subt2__38__1038.txt Node

Date: Wed Apr 09 12:21:18 CEST 2025
User: fys-lab-0081
Spectrometer: S04999
Trigger mode: 0
Resolution mode: 1024 pixels
Integration Time (sec): 1.000000E-1
Scans to average: 1
Nonlinearity correction enabled: false
Boxcar width: 0
Baseline correction enabled: true
XAxis mode: Wavelengths
Number of Pixels in Spectrum: 1024
>>>>>Begin Spectral Data<<<<<
336.42	0
336.877	4
337.334	1
337.792	5
338.249	4
338.706	5
339.164	1
339.621	2
340.079	8
340.536	3
340.994	6
341.452	5
341.909	7
342.367	1
342.825	2
343.283	7
343.741	3
344.198	1
344.656	3
345.114	0
345.572	7
346.03	4
346.488	3
346.947	3
347.405	8
347.863	4
348.321	2
348.779	11
349.238	3
349.696	3
350.154	2
350.613	4
351.071	5
351.53	10
351.988	9
352.447	7
352.905	1
353.364	7
353.823	5
354.282	1
354.74	-2
355.199	6
355.658	7
356.117	5
356.576	4
357.035	0
357.494	6
357.953	4
358.412	9
358.871	3
359.33	5
359.789	3
360.249	8
360.708	5
361.167	5
361.626	5
362.086	3
362.545	7
363.005	7
363.464	10
363.924	8
364.383	7
364.843	12
365.303	9
365.762	12
366.222	10
366.682	9
367.142	10
367.601	12
368.061	10
368.521	10
368.981	8
369.441	21
369.901	16
370.361	13
370.821	14
371.282	12
371.742	14
372.202	13
372.662	15
373.123	10
373.583	17
374.043	18
374.504	13
374.964	12
375.425	14
375.885	13
376.346	16
376.806	18
377.267	12
377.728	17
378.188	17
378.649	12
379.11	18
379.571	13
380.032	21
380.493	21
380.954	23
381.414	18
381.876	20
382.337	19
382.798	26
383.259	23
383.72	25
384.181	24
384.642	25
385.104	20
385.565	29
386.026	33
386.488	32
386.949	26
387.411	30
387.872	36
388.334	33
388.795	37
389.257	38
389.719	31
390.181	34
390.642	33
391.104	36
391.566	38
392.028	39
392.49	43
392.952	44
393.414	42
393.876	45
394.338	40
394.8	44
395.262	39
395.724	47
396.186	47
396.648	48
397.111	46
397.573	51
398.035	46
398.498	49
398.96	51
399.423	49
399.885	54
400.348	55
400.81	54
401.273	51
401.736	52
402.198	59
402.661	65
403.124	53
403.587	67
404.049	66
404.512	65
404.975	67
405.438	69
405.901	72
406.364	70
406.827	71
407.29	69
407.754	67
408.217	72
408.68	64
409.143	73
409.607	78
410.07	73
410.533	76
410.997	73
411.46	77
411.924	83
412.387	80
412.851	79
413.314	84
413.778	87
414.242	84
414.705	92
415.169	94
415.633	90
416.097	89
416.561	93
417.024	91
417.488	93
417.952	92
418.416	86
418.88	88
419.344	86
419.809	92
420.273	96
420.737	92
421.201	96
421.665	96
422.13	97
422.594	104
423.059	104
423.523	104
423.987	103
424.452	112
424.916	114
425.381	117
425.846	114
426.31	123
426.775	123
427.24	121
427.704	126
428.169	123
428.634	129
429.099	128
429.564	125
430.029	124
430.494	127
430.959	125
431.424	127
431.889	129
432.354	132
432.819	126
433.284	138
433.75	134
434.215	142
434.68	141
435.146	146
435.611	146
436.077	154
436.542	152
437.008	161
437.473	162
437.939	167
438.404	165
438.87	173
439.336	171
439.801	174
440.267	173
440.733	179
441.199	179
441.665	186
442.131	187
442.596	175
443.062	183
443.529	192
443.995	193
444.461	190
444.927	201
445.393	199
445.859	205
446.325	212
446.792	227
447.258	224
447.724	235
448.191	244
448.657	246
449.124	248
449.59	247
450.057	264
450.523	272
450.99	275
451.457	273
451.923	279
452.39	276
452.857	284
453.324	275
453.791	283
454.257	288
454.724	290
455.191	288
455.658	285
456.125	297
456.592	290
457.059	299
457.527	299
457.994	314
458.461	315
458.928	321
459.396	313
459.863	323
460.33	328
460.798	332
461.265	342
461.732	335
462.2	344
462.668	334
463.135	341
463.603	338
464.07	361
464.538	342
465.006	350
465.474	345
465.941	342
466.409	342
466.877	338
467.345	346
467.813	341
468.281	347
468.749	352
469.217	346
469.685	357
470.153	359
470.621	357
471.09	357
471.558	371
472.026	376
472.494	384
472.963	385
473.431	400
473.9	404
474.368	415
474.837	424
475.305	432
475.774	436
476.242	455
476.711	460
477.18	470
477.648	466
478.117	474
478.586	475
479.055	467
479.524	473
479.993	474
480.462	469
480.93	473
481.399	476
481.869	480
482.338	474
482.807	484
483.276	481
483.745	478
484.214	491
484.684	494
485.153	489
485.622	498
486.092	507
486.561	499
487.031	514
487.5	518
487.97	521
488.439	532
488.909	543
489.378	569
489.848	565
490.318	587
490.787	614
491.257	621
491.727	627
492.197	642
492.667	644
493.137	649
493.607	658
494.077	666
494.547	652
495.017	648
495.487	669
495.957	680
496.427	662
496.897	664
497.368	674
497.838	664
498.308	670
498.779	673
499.249	681
499.719	686
500.19	693
500.66	694
501.131	705
501.602	716
502.072	715
502.543	727
503.014	742
503.484	744
503.955	761
504.426	778
504.897	782
505.368	798
505.838	810
506.309	822
506.78	853
507.251	877
507.722	893
508.194	910
508.665	936
509.136	930
509.607	957
510.078	975
510.549	989
511.021	1014
511.492	1009
511.964	1031
512.435	1051
512.906	1039
513.378	1051
513.849	1073
514.321	1072
514.793	1077
515.264	1090
515.736	1098
516.208	1110
516.679	1119
517.151	1138
517.623	1149
518.095	1148
518.567	1157
519.038	1190
519.51	1187
519.982	1198
520.454	1218
520.927	1240
521.399	1259
521.871	1271
522.343	1290
522.815	1318
523.287	1306
523.76	1305
524.232	1339
524.704	1347
525.177	1319
525.649	1322
526.122	1344
526.594	1315
527.067	1334
527.539	1342
528.012	1349
528.484	1344
528.957	1344
529.43	1335
529.903	1339
530.375	1376
530.848	1333
531.321	1345
531.794	1364
532.267	1390
532.74	1359
533.213	1371
533.686	1399
534.159	1388
534.632	1415
535.105	1413
535.578	1449
536.051	1453
536.525	1446
536.998	1441
537.471	1477
537.945	1445
538.418	1455
538.891	1453
539.365	1487
539.838	1494
540.312	1490
540.786	1487
541.259	1502
541.733	1522
542.206	1521
542.68	1504
543.154	1521
543.628	1531
544.101	1565
544.575	1558
545.049	1534
545.523	1565
545.997	1560
546.471	1571
546.945	1571
547.419	1607
547.893	1520
548.367	1547
548.842	1536
549.316	1545
549.79	1547
550.264	1522
550.739	1543
551.213	1546
551.687	1527
552.162	1534
552.636	1525
553.111	1520
553.585	1556
554.06	1515
554.534	1557
555.009	1566
555.484	1590
555.958	1597
556.433	1612
556.908	1647
557.383	1646
557.858	1677
558.333	1679
558.807	1670
559.282	1689
559.757	1728
560.232	1708
560.708	1682
561.183	1684
561.658	1695
562.133	1680
562.608	1664
563.083	1725
563.559	1690
564.034	1678
564.509	1680
564.985	1700
565.46	1697
565.936	1712
566.411	1704
566.887	1685
567.362	1714
567.838	1718
568.313	1723
568.789	1715
569.265	1718
569.74	1739
570.216	1720
570.692	1741
571.168	1735
571.644	1751
572.12	1740
572.596	1743
573.071	1726
573.547	1781
574.024	1805
574.5	1800
574.976	1806
575.452	1832
575.928	1848
576.404	1850
576.881	1898
577.357	1872
577.833	1887
578.31	1931
578.786	1958
579.262	1978
579.739	1968
580.215	2037
580.692	2046
581.169	2011
581.645	2033
582.122	2098
582.598	2097
583.075	2103
583.552	2113
584.029	2112
584.506	2121
584.982	2117
585.459	2141
585.936	2088
586.413	2121
586.89	2167
587.367	2137
587.844	2153
588.321	2125
588.799	2126
589.276	2115
589.753	2143
590.23	2134
590.707	2116
591.185	2122
591.662	2123
592.139	2138
592.617	2168
593.094	2162
593.572	2183
594.049	2217
594.527	2226
595.004	2224
595.482	2290
595.96	2301
596.437	2316
596.915	2380
597.393	2343
597.871	2411
598.349	2401
598.826	2455
599.304	2446
599.782	2479
600.26	2440
600.738	2496
601.216	2474
601.694	2486
602.173	2484
602.651	2510
603.129	2499
603.607	2506
604.085	2506
604.564	2482
605.042	2487
605.52	2477
605.999	2536
606.477	2479
606.956	2479
607.434	2503.5
607.913	2528
608.391	2541
608.87	2525
609.348	2488
609.827	2516
610.306	2556
610.785	2589
611.263	2600
611.742	2581
612.221	2542
612.7	2608
613.179	2630
613.658	2590
614.137	2600
614.616	2619
615.095	2575
615.574	2605
616.053	2610
616.532	2564
617.011	2574
617.491	2578
617.97	2583
618.449	2604
618.928	2616
619.408	2595
619.887	2607
620.367	2638
620.846	2661
621.326	2642
621.805	2673
622.285	2677
622.764	2719
623.244	2730
623.724	2747
624.203	2772
624.683	2736
625.163	2817
625.643	2844
626.123	2818
626.602	2873
627.082	2802
627.562	2824
628.042	2919
628.522	2902
629.002	2888
629.482	2887
629.963	2895
630.443	2878
630.923	2885
631.403	2901
631.883	2862
632.364	2859
632.844	2848
633.324	2861
633.805	2865
634.285	2820
634.766	2787
635.246	2796
635.727	2802
636.207	2802
636.688	2798
637.168	2776
637.649	2740
638.13	2725
638.611	2756
639.091	2756
639.572	2747
640.053	2719
640.534	2764
641.015	2790
641.496	2761
641.977	2802
642.458	2778
642.939	2780
643.42	2800
643.901	2826
644.382	2862
644.863	2850
645.345	2842
645.826	2852
646.307	2869
646.788	2917
647.27	2869
647.751	2874
648.233	2879
648.714	2806
649.196	2879
649.677	2866
650.159	2861
650.64	2803
651.122	2822
651.603	2772
652.085	2812
652.567	2825
653.049	2789
653.53	2777
654.012	2797
654.494	2751
654.976	2785
655.458	2795
655.94	2798
656.422	2845
656.904	2808
657.386	2803
657.868	2843
658.35	2826
658.833	2849
659.315	2857
659.797	2839
660.279	2847
660.762	2882
661.244	2862
661.726	2834
662.209	2810
662.691	2815
663.174	2758
663.656	2787
664.139	2792
664.621	2750
665.104	2714
665.587	2727
666.069	2744
666.552	2744
667.035	2720
667.517	2708
668	2705
668.483	2699
668.966	2694
669.449	2684
669.932	2681
670.415	2703
670.898	2655
671.381	2641
671.864	2651
672.347	2647
672.83	2676
673.313	2679
673.797	2642
674.28	2680
674.763	2674
675.247	2703
675.73	2712
676.213	2733
676.697	2761
677.18	2770
677.664	2782
678.147	2806
678.631	2816
679.114	2852
679.598	2825
680.082	2824
680.565	2802
681.049	2803
681.533	2816
682.017	2852
682.5	2855
682.984	2845
683.468	2821
683.952	2772
684.436	2825
684.92	2786
685.404	2791
685.888	2805
686.372	2774
686.856	2764
687.341	2808
687.825	2786
688.309	2818
688.793	2803
689.278	2744
689.762	2776
690.246	2778
690.731	2809
691.215	2824
691.7	2755
692.184	2774
692.669	2770
693.153	2789
693.638	2761
694.122	2777
694.607	2805
695.092	2763
695.577	2771
696.061	2724
696.546	2740
697.031	2742
697.516	2775
698.001	2763
698.486	2728
698.971	2747
699.456	2691
699.941	2714
700.426	2723
700.911	2751
701.396	2722
701.881	2716
702.366	2695
702.852	2685
703.337	2726
703.822	2729
704.308	2735
704.793	2729
705.278	2709
705.764	2704
706.249	2697
706.735	2710
707.22	2747
707.706	2705
708.191	2733
708.677	2714
709.163	2698
709.648	2729
710.134	2762
710.62	2720
711.106	2698
711.592	2714
712.077	2701
712.563	2641
713.049	2660
713.535	2726
714.021	2718
714.507	2707
714.993	2696
715.479	2737
715.966	2718
716.452	2748
716.938	2780
717.424	2699
717.91	2757
718.397	2717
718.883	2686
719.369	2711
719.856	2703
720.342	2769
720.829	2725
721.315	2726
721.802	2702
722.288	2731
722.775	2631
723.262	2584
723.748	2702
724.235	2678
724.722	2703
725.208	2617
725.695	2606
726.182	2606
726.669	2595
727.156	2634
727.643	2604
728.13	2600
728.617	2563
729.104	2553
729.591	2535
730.078	2570
730.565	2586
731.052	2547
731.539	2540
732.027	2513
732.514	2467
733.001	2494
733.488	2495
733.976	2507
734.463	2505
734.951	2498
735.438	2526
735.926	2477
736.413	2496
736.901	2495
737.388	2532
737.876	2546
738.364	2524
738.851	2515
739.339	2499
739.827	2518
740.314	2452
740.802	2498
741.29	2537
741.778	2519
742.266	2534
742.754	2528
743.242	2540
743.73	2496
744.218	2500
744.706	2495
745.194	2542
745.682	2511
746.17	2505
746.659	2489
747.147	2422
747.635	2431
748.123	2446
748.612	2442
749.1	2434
749.589	2446
750.077	2418
750.566	2402
751.054	2413
751.543	2433
752.031	2408
752.52	2436
753.008	2396
753.497	2398
753.986	2379
754.474	2365
754.963	2378
755.452	2361
755.941	2369
756.43	2365
756.919	2357
757.408	2319
757.896	2304
758.385	2303
758.875	2290
759.364	2297
759.853	2302
760.342	2264
760.831	2309
761.32	2279
761.809	2223
762.299	2234
762.788	2250
763.277	2255
763.767	2246
764.256	2252
764.745	2215
765.235	2233
765.724	2169
766.214	2206
766.703	2212
767.193	2206
767.683	2246
768.172	2217
768.662	2244
769.152	2222
769.641	2235
770.131	2186
770.621	2227
771.111	2226
771.601	2245
772.09	2231
772.58	2191
773.07	2178
773.56	2187
774.05	2148
774.54	2153
775.031	2157
775.521	2163
776.011	2163
776.501	2174
776.991	2109
777.482	2112
777.972	2072
778.462	2085
778.953	2126
779.443	2125
779.933	2115
780.424	2071
780.914	2070
781.405	2057
781.895	2040
782.386	2041
782.877	2037
783.367	2018
783.858	1996
784.349	1991
784.839	1961
785.33	1952
785.821	1926
786.312	1916
786.803	1932
787.293	1954
787.784	1936
788.275	1898
788.766	1875
789.257	1892
789.748	1850
790.24	1836
790.731	1874
791.222	1867
791.713	1887
792.204	1907
792.696	1842
793.187	1862
793.678	1852
794.169	1812
794.661	1875
795.152	1871
795.644	1879
796.135	1891
796.627	1881
797.118	1843
797.61	1817
798.101	1799
798.593	1842
799.085	1820
799.576	1840
800.068	1826
800.56	1826
801.052	1773
801.544	1757
802.035	1752
802.527	1731
803.019	1719
803.511	1718
804.003	1712
804.495	1718
804.987	1699
805.479	1640
805.971	1634
806.464	1623
806.956	1584
807.448	1585
807.94	1603
808.433	1590
808.925	1580
809.417	1557
809.91	1548
810.402	1509
810.894	1524
811.387	1545
811.879	1534
812.372	1545
812.865	1537
813.357	1529
813.85	1514
814.342	1501
814.835	1503
815.328	1518
815.821	1514
816.313	1535
816.806	1559
817.299	1563
817.792	1583
818.285	1562
818.778	1580
819.271	1580
819.764	1571
820.257	1585
820.75	1604
821.243	1616
821.736	1614
822.229	1622
822.722	1611
823.216	1638
