Data from lamp4bck_dubbel_Subt2__90__1090.txt Node

Date: Wed Apr 09 12:21:24 CEST 2025
User: fys-lab-0081
Spectrometer: S04999
Trigger mode: 0
Resolution mode: 1024 pixels
Integration Time (sec): 1.000000E-1
Scans to average: 1
Nonlinearity correction enabled: false
Boxcar width: 0
Baseline correction enabled: true
XAxis mode: Wavelengths
Number of Pixels in Spectrum: 1024
>>>>>Begin Spectral Data<<<<<
336.42	2
336.877	4
337.334	3
337.792	3
338.249	7
338.706	5
339.164	7
339.621	4
340.079	5
340.536	5
340.994	3
341.452	5
341.909	7
342.367	3
342.825	2
343.283	8
343.741	5
344.198	0
344.656	3
345.114	6
345.572	7
346.03	3
346.488	7
346.947	4
347.405	5
347.863	3
348.321	4
348.779	7
349.238	3
349.696	4
350.154	3
350.613	2
351.071	6
351.53	9
351.988	9
352.447	5
352.905	1
353.364	3
353.823	4
354.282	5
354.74	0
355.199	5
355.658	9
356.117	7
356.576	5
357.035	4
357.494	10
357.953	4
358.412	11
358.871	8
359.33	4
359.789	5
360.249	5
360.708	4
361.167	8
361.626	9
362.086	6
362.545	5
363.005	10
363.464	5
363.924	10
364.383	4
364.843	10
365.303	14
365.762	11
366.222	8
366.682	10
367.142	9
367.601	9
368.061	8
368.521	10
368.981	13
369.441	16
369.901	10
370.361	9
370.821	12
371.282	12
371.742	12
372.202	13
372.662	10
373.123	10
373.583	15
374.043	19
374.504	15
374.964	10
375.425	14
375.885	13
376.346	20
376.806	21
377.267	17
377.728	21
378.188	24
378.649	16
379.11	17
379.571	11
380.032	19
380.493	18
380.954	23
381.414	17
381.876	20
382.337	18
382.798	24
383.259	24
383.72	21
384.181	21
384.642	26
385.104	23
385.565	28
386.026	29
386.488	30
386.949	28
387.411	27
387.872	33
388.334	33
388.795	32
389.257	33
389.719	31
390.181	29
390.642	34
391.104	34
391.566	39
392.028	39
392.49	41
392.952	41
393.414	41
393.876	46
394.338	37
394.8	42
395.262	38
395.724	49
396.186	50
396.648	47
397.111	52
397.573	47
398.035	48
398.498	51
398.96	53
399.423	53
399.885	50
400.348	56
400.81	56
401.273	52
401.736	49
402.198	61
402.661	66
403.124	60
403.587	65
404.049	64.5
404.512	64
404.975	66
405.438	66
405.901	73
406.364	71
406.827	68
407.29	70
407.754	71
408.217	70
408.68	68
409.143	74
409.607	79
410.07	73
410.533	74
410.997	76
411.46	77
411.924	81
412.387	83
412.851	81
413.314	81
413.778	83
414.242	86
414.705	90
415.169	94
415.633	84
416.097	90
416.561	90
417.024	93
417.488	89
417.952	92
418.416	88
418.88	87
419.344	89
419.809	92
420.273	94
420.737	94
421.201	101
421.665	95
422.13	101
422.594	104
423.059	106
423.523	108
423.987	106
424.452	109
424.916	114
425.381	115
425.846	115
426.31	123
426.775	123
427.24	121
427.704	126
428.169	127
428.634	132
429.099	125
429.564	128
430.029	124
430.494	125
430.959	129
431.424	125
431.889	132
432.354	135
432.819	127
433.284	138
433.75	137
434.215	143
434.68	138
435.146	139
435.611	153
436.077	154
436.542	157
437.008	159
437.473	167
437.939	164
438.404	174
438.87	176
439.336	171
439.801	174
440.267	178
440.733	177
441.199	180
441.665	183
442.131	188
442.596	175
443.062	184
443.529	195
443.995	194
444.461	195
444.927	203
445.393	195
445.859	207
446.325	214
446.792	229
447.258	228
447.724	233
448.191	247
448.657	250
449.124	248
449.59	250
450.057	267
450.523	271
450.99	276
451.457	272
451.923	277
452.39	279
452.857	293
453.324	283
453.791	284
454.257	290
454.724	291
455.191	290
455.658	290
456.125	300
456.592	298
457.059	303
457.527	305
457.994	314
458.461	309
458.928	320
459.396	320
459.863	327
460.33	325
460.798	333
461.265	341
461.732	338
462.2	344
462.668	342
463.135	348
463.603	345
464.07	363
464.538	338
465.006	353
465.474	350
465.941	347
466.409	346
466.877	344
467.345	344
467.813	341
468.281	352
468.749	352
469.217	349
469.685	362
470.153	367
470.621	365
471.09	362
471.558	375
472.026	376
472.494	389
472.963	388
473.431	400
473.9	411
474.368	422
474.837	420
475.305	436
475.774	437
476.242	453
476.711	460
477.18	471
477.648	462
478.117	473
478.586	477
479.055	470
479.524	477
479.993	475
480.462	473
480.93	474
481.399	480
481.869	483
482.338	470
482.807	479
483.276	484
483.745	481
484.214	489
484.684	497
485.153	494
485.622	498
486.092	510
486.561	500
487.031	517
487.5	522
487.97	527
488.439	535
488.909	546
489.378	567
489.848	571
490.318	584
490.787	620
491.257	621
491.727	631
492.197	649
492.667	646
493.137	653
493.607	655
494.077	663
494.547	655
495.017	660
495.487	676
495.957	683
496.427	668
496.897	666
497.368	681
497.838	669
498.308	679
498.779	675
499.249	693
499.719	690
500.19	699
500.66	699
501.131	700
501.602	718
502.072	718
502.543	733
503.014	742
503.484	742
503.955	750
504.426	784
504.897	781
505.368	799
505.838	815
506.309	826
506.78	859
507.251	877
507.722	889
508.194	920
508.665	938
509.136	942
509.607	968
510.078	984
510.549	998
511.021	1025
511.492	1020
511.964	1032
512.435	1053
512.906	1048
513.378	1055
513.849	1077
514.321	1068
514.793	1071
515.264	1091
515.736	1096
516.208	1107
516.679	1113
517.151	1135
517.623	1145
518.095	1154
518.567	1164
519.038	1194
519.51	1204
519.982	1209
520.454	1228
520.927	1244
521.399	1264
521.871	1269
522.343	1285
522.815	1314
523.287	1307
523.76	1306
524.232	1332
524.704	1344
525.177	1316
525.649	1307
526.122	1335
526.594	1310
527.067	1325
527.539	1345
528.012	1343
528.484	1342
528.957	1345
529.43	1339
529.903	1347
530.375	1379
530.848	1338
531.321	1355
531.794	1370
532.267	1394
532.74	1368
533.213	1375
533.686	1410
534.159	1393
534.632	1411
535.105	1413
535.578	1441
536.051	1453
536.525	1435
536.998	1438
537.471	1469
537.945	1436
538.418	1452
538.891	1456
539.365	1485
539.838	1492
540.312	1480
540.786	1501
541.259	1516
541.733	1537
542.206	1531
542.68	1510
543.154	1537
543.628	1541
544.101	1569
544.575	1563
545.049	1540
545.523	1581
545.997	1561
546.471	1575
546.945	1578
547.419	1597
547.893	1510
548.367	1536
548.842	1526
549.316	1525
549.79	1532
550.264	1516
550.739	1528
551.213	1535
551.687	1524
552.162	1527
552.636	1519
553.111	1521
553.585	1556
554.06	1529
554.534	1567
555.009	1572
555.484	1600
555.958	1608
556.433	1619
556.908	1660
557.383	1643
557.858	1680
558.333	1679
558.807	1668
559.282	1683
559.757	1719
560.232	1700
560.708	1674
561.183	1672
561.658	1677
562.133	1665
562.608	1648
563.083	1706
563.559	1678
564.034	1671
564.509	1677
564.985	1703
565.46	1693
565.936	1720
566.411	1713
566.887	1703
567.362	1736
567.838	1727
568.313	1740
568.789	1731
569.265	1744
569.74	1761
570.216	1726
570.692	1749
571.168	1736
571.644	1752
572.12	1736
572.596	1736
573.071	1718
573.547	1766
574.024	1794
574.5	1776
574.976	1784
575.452	1817
575.928	1833
576.404	1836
576.881	1876
577.357	1853
577.833	1879
578.31	1933
578.786	1953
579.262	1984
579.739	1969
580.215	2048
580.692	2059
581.169	2035
581.645	2043
582.122	2113
582.598	2109
583.075	2110
583.552	2122
584.029	2115
584.506	2119
584.982	2103
585.459	2126
585.936	2071
586.413	2097
586.89	2139
587.367	2108
587.844	2120
588.321	2080
588.799	2099
589.276	2093
589.753	2126
590.23	2127
590.707	2112
591.185	2114
591.662	2126
592.139	2141
592.617	2176
593.094	2170
593.572	2201
594.049	2233
594.527	2251
595.004	2239
595.482	2310
595.96	2323
596.437	2334
596.915	2386
597.393	2351
597.871	2416
598.349	2389
598.826	2440
599.304	2418
599.782	2448
600.26	2407
600.738	2461
601.216	2437
601.694	2432
602.173	2437
602.651	2467
603.129	2454
603.607	2473
604.085	2475
604.564	2459
605.042	2457
605.52	2464
605.999	2533
606.477	2485
606.956	2485
607.434	2517
607.913	2549
608.391	2563
608.87	2551
609.348	2523
609.827	2543
610.306	2582
610.785	2600
611.263	2610
611.742	2588
612.221	2557
612.7	2611
613.179	2625
613.658	2571
614.137	2578
614.616	2587
615.095	2549
615.574	2577
616.053	2571
616.532	2528
617.011	2539
617.491	2555
617.97	2548
618.449	2580
618.928	2593
619.408	2572
619.887	2599
620.367	2624
620.846	2651
621.326	2640
621.805	2680
622.285	2681
622.764	2739
623.244	2756
623.724	2773
624.203	2795
624.683	2763
625.163	2843
625.643	2853
626.123	2841
626.602	2889
627.082	2816
627.562	2835
628.042	2919
628.522	2888
629.002	2869
629.482	2858
629.963	2858
630.443	2838
630.923	2845
631.403	2853
631.883	2813
632.364	2813
632.844	2800
633.324	2825
633.805	2836
634.285	2794
634.766	2763
635.246	2760
635.727	2777
636.207	2798
636.688	2793
637.168	2793
637.649	2756
638.13	2735
638.611	2769
639.091	2777
639.572	2767
640.053	2744
640.534	2793
641.015	2810
641.496	2767
641.977	2822
642.458	2792
642.939	2789
643.42	2807
643.901	2829
644.382	2849
644.863	2836
645.345	2818
645.826	2831
646.307	2833
646.788	2878
647.27	2835
647.751	2836
648.233	2840
648.714	2766
649.196	2837
649.677	2821
650.159	2811
650.64	2763
651.122	2795
651.603	2753
652.085	2796
652.567	2812
653.049	2782
653.53	2778
654.012	2797
654.494	2754
654.976	2801
655.458	2803
655.94	2805
656.422	2860
656.904	2831
657.386	2817
657.868	2839
658.35	2838
658.833	2855
659.315	2854
659.797	2829
660.279	2842
660.762	2872
661.244	2851
661.726	2807
662.209	2787
662.691	2789
663.174	2733
663.656	2750
664.139	2751
664.621	2705
665.104	2661
665.587	2672
666.069	2698
666.552	2696
667.035	2676
667.517	2668
668	2670
668.483	2665
668.966	2652
669.449	2660
669.932	2663
670.415	2682
670.898	2652
671.381	2641
671.864	2648
672.347	2649
672.83	2675
673.313	2689
673.797	2661
674.28	2697
674.763	2691
675.247	2722
675.73	2730
676.213	2757
676.697	2776
677.18	2774
677.664	2786
678.147	2800
678.631	2821
679.114	2835
679.598	2824
680.082	2809
680.565	2803
681.049	2795
681.533	2806
682.017	2841
682.5	2832
682.984	2827
683.468	2808
683.952	2750
684.436	2805
684.92	2764
685.404	2777
685.888	2792
686.372	2749
686.856	2748
687.341	2803
687.825	2793
688.309	2818
688.793	2802
689.278	2761
689.762	2787
690.246	2785
690.731	2823
691.215	2832
691.7	2765
692.184	2793
692.669	2800
693.153	2810
693.638	2782
694.122	2797
694.607	2825
695.092	2779
695.577	2799
696.061	2737
696.546	2753
697.031	2752
697.516	2784
698.001	2770
698.486	2734
698.971	2743
699.456	2683
699.941	2707
700.426	2724
700.911	2746
701.396	2708
701.881	2712
702.366	2675
702.852	2669
703.337	2698
703.822	2713
704.308	2702
704.793	2706
705.278	2685
705.764	2681
706.249	2663
706.735	2687
707.22	2730
707.706	2679
708.191	2704
708.677	2696
709.163	2692
709.648	2719
710.134	2755
710.62	2710
711.106	2694
711.592	2717
712.077	2698
712.563	2637
713.049	2654
713.535	2727
714.021	2727
714.507	2718
714.993	2702
715.479	2746
715.966	2727
716.452	2763
716.938	2784
717.424	2715
717.91	2759
718.397	2714
718.883	2684
719.369	2704
719.856	2695
720.342	2758
720.829	2732
721.315	2729
721.802	2695
722.288	2722
722.775	2624
723.262	2565
723.748	2679
724.235	2661
724.722	2689
725.208	2603
725.695	2595
726.182	2599
726.669	2585
727.156	2616
727.643	2578
728.13	2576
728.617	2541
729.104	2521
729.591	2504
730.078	2536
730.565	2552
731.052	2524
731.539	2517
732.027	2485
732.514	2440
733.001	2472
733.488	2470
733.976	2481
734.463	2488
734.951	2476
735.438	2516
735.926	2485
736.413	2496
736.901	2489
737.388	2534
737.876	2538
738.364	2513
738.851	2524
739.339	2501
739.827	2521
740.314	2455
740.802	2503
741.29	2540
741.778	2517
742.266	2537
742.754	2520
743.242	2530
743.73	2482
744.218	2506
744.706	2496
745.194	2529
745.682	2494
746.17	2509
746.659	2478
747.147	2412
747.635	2430
748.123	2436
748.612	2426
749.1	2412
749.589	2420
750.077	2393
750.566	2369
751.054	2381
751.543	2405
752.031	2385
752.52	2412
753.008	2370
753.497	2355
753.986	2350
754.474	2322
754.963	2351
755.452	2338
755.941	2331
756.43	2344
756.919	2328
757.408	2294
757.896	2278
758.385	2275
758.875	2264
759.364	2270
759.853	2270
760.342	2247
760.831	2294
761.32	2272
761.809	2216
762.299	2229
762.788	2247
763.277	2258
763.767	2234
764.256	2248
764.745	2211
765.235	2229
765.724	2163
766.214	2201
766.703	2209
767.193	2207
767.683	2244
768.172	2221
768.662	2235
769.152	2215
769.641	2224
770.131	2183
770.621	2221
771.111	2214
771.601	2227
772.09	2208
772.58	2160
773.07	2159
773.56	2151
774.05	2111
774.54	2122
775.031	2125
775.521	2135
776.011	2132
776.501	2137
776.991	2074
777.482	2080
777.972	2037
778.462	2055
778.953	2089
779.443	2090
779.933	2081
780.424	2034
780.914	2038
781.405	2034
781.895	2017
782.386	2015
782.877	2025
783.367	1997
783.858	1987
784.349	1978
784.839	1952
785.33	1934
785.821	1916
786.312	1912
786.803	1933
787.293	1964
787.784	1944
788.275	1917
788.766	1884
789.257	1909
789.748	1860
790.24	1853
790.731	1882
791.222	1873
791.713	1890
792.204	1892
792.696	1838
793.187	1862
793.678	1845
794.169	1800
794.661	1858
795.152	1859
795.644	1865
796.135	1877
796.627	1862
797.118	1825
797.61	1795
798.101	1777
798.593	1808
799.085	1783
799.576	1801
800.068	1787
800.56	1786
801.052	1728
801.544	1720
802.035	1711
802.527	1698
803.019	1692
803.511	1685
804.003	1679
804.495	1698
804.987	1666
805.479	1608
805.971	1612
806.464	1605
806.956	1563
807.448	1568
807.94	1577
808.433	1575
808.925	1574
809.417	1553
809.91	1537
810.402	1508
810.894	1518
811.387	1542
811.879	1530
812.372	1551
812.865	1536
813.357	1530
813.85	1517
814.342	1510
814.835	1512
815.328	1527
815.821	1516
816.313	1539
816.806	1570
817.299	1566
817.792	1579
818.285	1562
818.778	1583
819.271	1574
819.764	1563
820.257	1580
820.75	1594
821.243	1611
821.736	1600
822.229	1609
822.722	1590
823.216	1614
