Data from lamp4bck_dubbel_Subt2__52__1052.txt Node

Date: Wed Apr 09 12:21:20 CEST 2025
User: fys-lab-0081
Spectrometer: S04999
Trigger mode: 0
Resolution mode: 1024 pixels
Integration Time (sec): 1.000000E-1
Scans to average: 1
Nonlinearity correction enabled: false
Boxcar width: 0
Baseline correction enabled: true
XAxis mode: Wavelengths
Number of Pixels in Spectrum: 1024
>>>>>Begin Spectral Data<<<<<
336.42	1
336.877	3
337.334	0
337.792	8
338.249	5
338.706	2
339.164	4
339.621	4
340.079	6
340.536	4
340.994	2
341.452	2
341.909	6
342.367	2
342.825	4
343.283	7
343.741	1
344.198	5
344.656	7
345.114	4
345.572	5
346.03	2
346.488	3
346.947	1
347.405	6
347.863	-1
348.321	3
348.779	8
349.238	2
349.696	0
350.154	-1
350.613	5
351.071	8
351.53	8
351.988	1
352.447	5
352.905	-3
353.364	-1
353.823	9
354.282	4
354.74	0
355.199	7
355.658	9
356.117	3
356.576	4
357.035	4
357.494	5
357.953	4
358.412	6
358.871	3
359.33	6
359.789	4
360.249	5
360.708	3
361.167	6
361.626	10
362.086	5
362.545	5
363.005	7
363.464	8
363.924	10
364.383	9
364.843	9
365.303	7
365.762	12
366.222	7
366.682	9
367.142	10
367.601	9
368.061	10
368.521	9
368.981	10
369.441	14
369.901	16
370.361	10
370.821	9
371.282	10
371.742	12
372.202	10
372.662	13
373.123	7
373.583	15
374.043	16
374.504	9
374.964	11
375.425	17
375.885	13
376.346	18
376.806	18
377.267	16
377.728	20
378.188	17
378.649	14
379.11	16
379.571	12
380.032	18
380.493	18
380.954	23
381.414	20
381.876	19
382.337	19
382.798	23
383.259	24
383.72	23
384.181	20
384.642	22
385.104	24
385.565	30
386.026	30
386.488	30
386.949	27
387.411	29
387.872	29
388.334	34
388.795	38
389.257	33
389.719	31
390.181	32
390.642	34
391.104	37
391.566	39
392.028	37
392.49	42
392.952	47
393.414	41
393.876	44
394.338	38
394.8	43
395.262	37
395.724	47
396.186	47
396.648	45
397.111	48
397.573	54
398.035	44
398.498	50
398.96	54
399.423	52
399.885	52
400.348	55
400.81	52
401.273	49
401.736	52
402.198	60
402.661	59
403.124	54
403.587	67
404.049	66.5
404.512	66
404.975	65
405.438	70
405.901	70
406.364	70
406.827	70
407.29	69
407.754	63
408.217	71
408.68	71
409.143	75
409.607	76
410.07	68
410.533	71
410.997	79
411.46	78
411.924	80
412.387	78
412.851	79
413.314	84
413.778	84
414.242	84
414.705	88
415.169	90
415.633	87
416.097	84
416.561	86
417.024	92
417.488	92
417.952	91
418.416	90
418.88	84
419.344	88
419.809	97
420.273	93
420.737	89
421.201	91
421.665	97
422.13	101
422.594	102
423.059	105
423.523	106
423.987	101
424.452	111
424.916	108
425.381	119
425.846	113
426.31	123
426.775	121
427.24	122
427.704	123
428.169	125
428.634	128
429.099	124
429.564	124
430.029	125
430.494	123
430.959	127
431.424	125
431.889	124
432.354	135
432.819	128
433.284	130
433.75	131
434.215	142
434.68	141
435.146	144
435.611	147
436.077	154
436.542	154
437.008	163
437.473	165
437.939	165
438.404	167
438.87	174
439.336	170
439.801	173
440.267	175
440.733	178
441.199	177
441.665	184
442.131	183
442.596	173
443.062	183
443.529	193
443.995	190
444.461	197
444.927	198
445.393	198
445.859	208
446.325	211
446.792	225
447.258	220
447.724	237
448.191	244
448.657	246
449.124	249
449.59	245
450.057	264
450.523	269
450.99	271
451.457	274
451.923	280
452.39	275
452.857	286
453.324	275
453.791	284
454.257	289
454.724	289
455.191	285
455.658	291
456.125	299
456.592	294
457.059	302
457.527	298
457.994	313
458.461	309
458.928	320
459.396	313
459.863	327
460.33	326
460.798	329
461.265	336
461.732	329
462.2	339
462.668	341
463.135	342
463.603	338
464.07	352
464.538	338
465.006	351
465.474	341
465.941	343
466.409	338
466.877	343
467.345	339
467.813	337
468.281	344
468.749	351
469.217	350
469.685	354
470.153	361
470.621	357
471.09	359
471.558	376
472.026	374
472.494	384
472.963	389
473.431	395
473.9	406
474.368	416
474.837	413
475.305	431
475.774	436
476.242	449
476.711	451
477.18	467
477.648	459
478.117	468
478.586	470
479.055	464
479.524	476
479.993	468
480.462	470
480.93	469
481.399	481
481.869	474
482.338	467
482.807	483
483.276	484
483.745	478
484.214	483
484.684	491
485.153	490
485.622	494
486.092	509
486.561	495
487.031	514
487.5	522
487.97	520
488.439	533
488.909	544
489.378	565
489.848	572
490.318	587
490.787	614
491.257	617
491.727	624
492.197	641
492.667	645
493.137	642
493.607	650
494.077	663
494.547	649
495.017	650
495.487	662
495.957	679
496.427	663
496.897	660
497.368	678
497.838	663
498.308	672
498.779	673
499.249	679
499.719	684
500.19	700
500.66	697
501.131	700
501.602	717
502.072	712
502.543	726
503.014	742
503.484	735
503.955	753
504.426	771
504.897	772
505.368	796
505.838	805
506.309	814
506.78	855
507.251	872
507.722	886
508.194	917
508.665	931
509.136	933
509.607	961
510.078	978
510.549	995
511.021	1018
511.492	1012
511.964	1034
512.435	1050
512.906	1037
513.378	1048
513.849	1069
514.321	1066
514.793	1065
515.264	1085
515.736	1090
516.208	1107
516.679	1111
517.151	1123
517.623	1137
518.095	1148
518.567	1162
519.038	1190
519.51	1188
519.982	1199
520.454	1218
520.927	1244
521.399	1257
521.871	1272
522.343	1280
522.815	1306
523.287	1301
523.76	1305
524.232	1329
524.704	1335
525.177	1300
525.649	1299
526.122	1336
526.594	1299
527.067	1319
527.539	1333
528.012	1335
528.484	1340
528.957	1339
529.43	1333
529.903	1340
530.375	1369
530.848	1328
531.321	1343
531.794	1360
532.267	1394
532.74	1364
533.213	1363
533.686	1398
534.159	1380
534.632	1400
535.105	1408
535.578	1444
536.051	1439
536.525	1429
536.998	1430
537.471	1463
537.945	1428
538.418	1444
538.891	1445
539.365	1479
539.838	1484
540.312	1476
540.786	1485
541.259	1504
541.733	1528
542.206	1529
542.68	1509
543.154	1527
543.628	1533
544.101	1556
544.575	1557
545.049	1532
545.523	1566
545.997	1558
546.471	1566
546.945	1562
547.419	1589
547.893	1502
548.367	1528
548.842	1512
549.316	1525
549.79	1529
550.264	1508
550.739	1521
551.213	1528
551.687	1516
552.162	1518
552.636	1519
553.111	1519
553.585	1543
554.06	1520
554.534	1562
555.009	1563
555.484	1592
555.958	1595
556.433	1612
556.908	1650
557.383	1631
557.858	1672
558.333	1673
558.807	1649
559.282	1673
559.757	1705
560.232	1695
560.708	1655
561.183	1658
561.658	1676
562.133	1662
562.608	1641
563.083	1704
563.559	1672
564.034	1675
564.509	1674
564.985	1693
565.46	1686
565.936	1715
566.411	1706
566.887	1697
567.362	1721
567.838	1722
568.313	1734
568.789	1722
569.265	1725
569.74	1737
570.216	1712
570.692	1734
571.168	1724
571.644	1744
572.12	1725
572.596	1730
573.071	1713
573.547	1760
574.024	1774
574.5	1774
574.976	1769
575.452	1792
575.928	1821
576.404	1828
576.881	1877
577.357	1847
577.833	1868
578.31	1924
578.786	1942
579.262	1975
579.739	1966
580.215	2038
580.692	2043
581.169	2018
581.645	2031
582.122	2101
582.598	2093
583.075	2099
583.552	2104
584.029	2107
584.506	2112
584.982	2089
585.459	2111
585.936	2064
586.413	2086
586.89	2129
587.367	2094
587.844	2113
588.321	2080
588.799	2084
589.276	2089
589.753	2120
590.23	2121
590.707	2104
591.185	2109
591.662	2112
592.139	2133
592.617	2161
593.094	2163
593.572	2192
594.049	2222
594.527	2233
595.004	2229
595.482	2300
595.96	2301
596.437	2317
596.915	2370
597.393	2336
597.871	2402
598.349	2382
598.826	2424
599.304	2409
599.782	2443
600.26	2394
600.738	2450
601.216	2428
601.694	2420
602.173	2424
602.651	2456
603.129	2442
603.607	2469
604.085	2468
604.564	2446
605.042	2447
605.52	2446
605.999	2524
606.477	2465
606.956	2479
607.434	2509
607.913	2539
608.391	2548
608.87	2544
609.348	2504
609.827	2532
610.306	2572
610.785	2596
611.263	2594
611.742	2576
612.221	2532
612.7	2599
613.179	2608
613.658	2560
614.137	2570
614.616	2581
615.095	2534
615.574	2560
616.053	2559
616.532	2509
617.011	2523
617.491	2532
617.97	2545
618.449	2562
618.928	2579
619.408	2557
619.887	2580
620.367	2609
620.846	2644
621.326	2621
621.805	2658
622.285	2668
622.764	2711
623.244	2739
623.724	2744
624.203	2779
624.683	2746
625.163	2831
625.643	2837
626.123	2824
626.602	2866
627.082	2800
627.562	2820
628.042	2901
628.522	2879
629.002	2862
629.482	2854
629.963	2850
630.443	2833
630.923	2841
631.403	2842
631.883	2805
632.364	2806
632.844	2796
633.324	2814
633.805	2829
634.285	2778
634.766	2742
635.246	2753
635.727	2771
636.207	2785
636.688	2772
637.168	2760
637.649	2738
638.13	2730
638.611	2760
639.091	2767
639.572	2759
640.053	2738
640.534	2777
641.015	2799
641.496	2765
641.977	2811
642.458	2779
642.939	2778
643.42	2786
643.901	2811
644.382	2839
644.863	2825
645.345	2803
645.826	2812
646.307	2824
646.788	2867
647.27	2815
647.751	2823
648.233	2822
648.714	2752
649.196	2830
649.677	2809
650.159	2800
650.64	2753
651.122	2786
651.603	2747
652.085	2778
652.567	2803
653.049	2776
653.53	2759
654.012	2788
654.494	2747
654.976	2786
655.458	2803
655.94	2801
656.422	2842
656.904	2822
657.386	2802
657.868	2834
658.35	2827
658.833	2852
659.315	2846
659.797	2812
660.279	2835
660.762	2864
661.244	2835
661.726	2793
662.209	2776
662.691	2772
663.174	2714
663.656	2731
664.139	2746
664.621	2693
665.104	2652
665.587	2671
666.069	2684
666.552	2678
667.035	2670
667.517	2650
668	2653
668.483	2656
668.966	2643
669.449	2647
669.932	2650
670.415	2669
670.898	2625
671.381	2625
671.864	2638
672.347	2634
672.83	2658
673.313	2672
673.797	2644
674.28	2685
674.763	2682
675.247	2703
675.73	2716
676.213	2749
676.697	2765
677.18	2767
677.664	2773
678.147	2786
678.631	2809
679.114	2823
679.598	2808
680.082	2794
680.565	2785
681.049	2784
681.533	2788
682.017	2829
682.5	2822
682.984	2815
683.468	2793
683.952	2733
684.436	2790
684.92	2748
685.404	2761
685.888	2776
686.372	2740
686.856	2736
687.341	2789
687.825	2782
688.309	2794
688.793	2790
689.278	2740
689.762	2770
690.246	2774
690.731	2807
691.215	2816
691.7	2746
692.184	2782
692.669	2777
693.153	2786
693.638	2761
694.122	2777
694.607	2800
695.092	2761
695.577	2773
696.061	2723
696.546	2742
697.031	2731
697.516	2769
698.001	2758
698.486	2718
698.971	2729
699.456	2679
699.941	2697
700.426	2705
700.911	2731
701.396	2697
701.881	2698
702.366	2666
702.852	2653
703.337	2690
703.822	2690
704.308	2688
704.793	2683
705.278	2663
705.764	2657
706.249	2655
706.735	2676
707.22	2711
707.706	2664
708.191	2700
708.677	2683
709.163	2681
709.648	2711
710.134	2733
710.62	2701
711.106	2687
711.592	2698
712.077	2686
712.563	2625
713.049	2642
713.535	2714
714.021	2706
714.507	2710
714.993	2685
715.479	2738
715.966	2718
716.452	2741
716.938	2774
717.424	2696
717.91	2744
718.397	2710
718.883	2673
719.369	2694
719.856	2701
720.342	2749
720.829	2723
721.315	2715
721.802	2697
722.288	2702
722.775	2609
723.262	2551
723.748	2667
724.235	2645
724.722	2679
725.208	2597
725.695	2587
726.182	2582
726.669	2569
727.156	2604
727.643	2568
728.13	2565
728.617	2534
729.104	2523
729.591	2494
730.078	2531
730.565	2550
731.052	2518
731.539	2515
732.027	2486
732.514	2444
733.001	2469
733.488	2470
733.976	2489
734.463	2488
734.951	2482
735.438	2514
735.926	2476
736.413	2485
736.901	2478
737.388	2528
737.876	2528
738.364	2506
738.851	2510
739.339	2488
739.827	2513
740.314	2446
740.802	2489
741.29	2530
741.778	2500
742.266	2519
742.754	2521
743.242	2530
743.73	2476
744.218	2490
744.706	2481
745.194	2518
745.682	2492
746.17	2487
746.659	2463
747.147	2400
747.635	2420
748.123	2423
748.612	2414
749.1	2408
749.589	2415
750.077	2388
750.566	2365
751.054	2376
751.543	2400
752.031	2374
752.52	2400
753.008	2363
753.497	2352
753.986	2347
754.474	2329
754.963	2352
755.452	2332
755.941	2338
756.43	2338
756.919	2331
757.408	2292
757.896	2277
758.385	2276
758.875	2265
759.364	2263
759.853	2266
760.342	2247
760.831	2292
761.32	2263
761.809	2203
762.299	2223
762.788	2241
763.277	2243
763.767	2230
764.256	2233
764.745	2207
765.235	2223
765.724	2152
766.214	2187
766.703	2200
767.193	2197
767.683	2228
768.172	2202
768.662	2220
769.152	2206
769.641	2211
770.131	2166
770.621	2210
771.111	2196
771.601	2219
772.09	2202
772.58	2160
773.07	2155
773.56	2146
774.05	2104
774.54	2122
775.031	2123
775.521	2122
776.011	2129
776.501	2134
776.991	2076
777.482	2082
777.972	2039
778.462	2056
778.953	2089
779.443	2091
779.933	2083
780.424	2041
780.914	2042
781.405	2036
781.895	2016
782.386	2016
782.877	2023
783.367	1999
783.858	1980
784.349	1980
784.839	1943
785.33	1932
785.821	1907
786.312	1899
786.803	1924
787.293	1939
787.784	1927
788.275	1896
788.766	1866
789.257	1893
789.748	1843
790.24	1835
790.731	1862
791.222	1860
791.713	1867
792.204	1883
792.696	1832
793.187	1847
793.678	1833
794.169	1797
794.661	1850
795.152	1844
795.644	1853
796.135	1857
796.627	1856
797.118	1809
797.61	1783
798.101	1768
798.593	1793
799.085	1774
799.576	1798
800.068	1777
800.56	1784
801.052	1732
801.544	1720
802.035	1717
802.527	1702
803.019	1684
803.511	1683
804.003	1684
804.495	1694
804.987	1665
805.479	1612
805.971	1607
806.464	1600
806.956	1560
807.448	1567
807.94	1583
808.433	1580
808.925	1571
809.417	1551
809.91	1537
810.402	1501
810.894	1519
811.387	1530
811.879	1524
812.372	1544
812.865	1535
813.357	1522
813.85	1506
814.342	1496
814.835	1500
815.328	1506
815.821	1508
816.313	1532
816.806	1556
817.299	1561
817.792	1572
818.285	1546
818.778	1567
819.271	1577
819.764	1550
820.257	1566
820.75	1576
821.243	1600
821.736	1583
822.229	1596
822.722	1581
823.216	1609
