Data from lamp1bck_Subt4__22__84.txt Node

Date: Fri Apr 04 10:06:04 CEST 2025
User: fys-lab-0081
Spectrometer: S04999
Trigger mode: 0
Resolution mode: 1024 pixels
Integration Time (sec): 1.000000E-1
Scans to average: 1
Nonlinearity correction enabled: false
Boxcar width: 0
Baseline correction enabled: true
XAxis mode: Wavelengths
Number of Pixels in Spectrum: 1024
>>>>>Begin Spectral Data<<<<<
336.42	2
336.877	2
337.334	3
337.792	8
338.249	12
338.706	9
339.164	3
339.621	5
340.079	5
340.536	8
340.994	8
341.452	6
341.909	7
342.367	8
342.825	8
343.283	9
343.741	8
344.198	4
344.656	7
345.114	12
345.572	4
346.03	9
346.488	13
346.947	9
347.405	13
347.863	10
348.321	11
348.779	13
349.238	12
349.696	14
350.154	15
350.613	14
351.071	17
351.53	18
351.988	18
352.447	15
352.905	16
353.364	22
353.823	25
354.282	16
354.74	18
355.199	23
355.658	23
356.117	22
356.576	18
357.035	22
357.494	29
357.953	21
358.412	23
358.871	29
359.33	27
359.789	28
360.249	27
360.708	34
361.167	28
361.626	33
362.086	32
362.545	31
363.005	35
363.464	39
363.924	36
364.383	36
364.843	42
365.303	39
365.762	40
366.222	45
366.682	43
367.142	44
367.601	47
368.061	52
368.521	48
368.981	51
369.441	47
369.901	47
370.361	47
370.821	55
371.282	53
371.742	47
372.202	52
372.662	53
373.123	56
373.583	57
374.043	60
374.504	57
374.964	61
375.425	59
375.885	66
376.346	65
376.806	61
377.267	70
377.728	69
378.188	71
378.649	74
379.11	69
379.571	72
380.032	77
380.493	78
380.954	84
381.414	80
381.876	87
382.337	90
382.798	92
383.259	98
383.72	94
384.181	101
384.642	105
385.104	110
385.565	108
386.026	115
386.488	117
386.949	117
387.411	127
387.872	128
388.334	128
388.795	129
389.257	130
389.719	134
390.181	138
390.642	142
391.104	145
391.566	149
392.028	157
392.49	155
392.952	158
393.414	160
393.876	166
394.338	173
394.8	173
395.262	176
395.724	184
396.186	183
396.648	192
397.111	181
397.573	187
398.035	186
398.498	196
398.96	199
399.423	198
399.885	200
400.348	206
400.81	213
401.273	216
401.736	215
402.198	228
402.661	238
403.124	243
403.587	243
404.049	248.5
404.512	254
404.975	262
405.438	258
405.901	257
406.364	255
406.827	268
407.29	264
407.754	262
408.217	258
408.68	261
409.143	264
409.607	269
410.07	268
410.533	272
410.997	278
411.46	286
411.924	284
412.387	282
412.851	293
413.314	307
413.778	313
414.242	310
414.705	330
415.169	318
415.633	327
416.097	326
416.561	331
417.024	334
417.488	327
417.952	332
418.416	325
418.88	336
419.344	329
419.809	331
420.273	343
420.737	327
421.201	338
421.665	344
422.13	341
422.594	353
423.059	359
423.523	364
423.987	370
424.452	384
424.916	389
425.381	401
425.846	414
426.31	400
426.775	413
427.24	420
427.704	417
428.169	424
428.634	419
429.099	409
429.564	413
430.029	418
430.494	419
430.959	416
431.424	412
431.889	427
432.354	432
432.819	423
433.284	439
433.75	442
434.215	463
434.68	464
435.146	471
435.611	496
436.077	511
436.542	515
437.008	534
437.473	537
437.939	539
438.404	555
438.87	562
439.336	545
439.801	548
440.267	561
440.733	568
441.199	566
441.665	566
442.131	582
442.596	570
443.062	594
443.529	606
443.995	612
444.461	628
444.927	648
445.393	647
445.859	676
446.325	687
446.792	722
447.258	723
447.724	746
448.191	780
448.657	777
449.124	810
449.59	806
450.057	836
450.523	845
450.99	865
451.457	867
451.923	885
452.39	869
452.857	886
453.324	873
453.791	892
454.257	897
454.724	900
455.191	896
455.658	897
456.125	930
456.592	907
457.059	923
457.527	930
457.994	961
458.461	959
458.928	977
459.396	983
459.863	1008
460.33	1012
460.798	1012
461.265	1024
461.732	1013
462.2	1041
462.668	1036
463.135	1050
463.603	1024
464.07	1060
464.538	1023
465.006	1053
465.474	1022
465.941	1032
466.409	1041
466.877	1015
467.345	1047
467.813	1022
468.281	1036
468.749	1044
469.217	1038
469.685	1053
470.153	1062
470.621	1063
471.09	1062
471.558	1112
472.026	1097
472.494	1127
472.963	1148
473.431	1181
473.9	1203
474.368	1231
474.837	1245
475.305	1267
475.774	1296
476.242	1329
476.711	1333
477.18	1363
477.648	1350
478.117	1374
478.586	1350
479.055	1357
479.524	1360
479.993	1358
480.462	1344
480.93	1356
481.399	1364
481.869	1370
482.338	1347
482.807	1362
483.276	1360
483.745	1359
484.214	1386
484.684	1395
485.153	1386
485.622	1397
486.092	1432
486.561	1401
487.031	1454
487.5	1478
487.97	1476
488.439	1507
488.909	1544
489.378	1596
489.848	1604
490.318	1637
490.787	1703
491.257	1736
491.727	1751
492.197	1786
492.667	1786
493.137	1809
493.607	1822
494.077	1835
494.547	1815
495.017	1809
495.487	1844
495.957	1874
496.427	1831
496.897	1836
497.368	1852
497.838	1838
498.308	1862
498.779	1869
499.249	1881
499.719	1887
500.19	1897
500.66	1916
501.131	1916
501.602	1958
502.072	1954
502.543	1966
503.014	2036
503.484	2016
503.955	2069
504.426	2143
504.897	2138
505.368	2184
505.838	2216
506.309	2274
506.78	2340
507.251	2381
507.722	2413
508.194	2468
508.665	2505
509.136	2498
509.607	2579
510.078	2619
510.549	2645
511.021	2701
511.492	2702
511.964	2736
512.435	2766
512.906	2750
513.378	2780
513.849	2820
514.321	2817
514.793	2845
515.264	2869
515.736	2896
516.208	2937
516.679	2958
517.151	2989
517.623	3004
518.095	3056
518.567	3070
519.038	3116
519.51	3110
519.982	3167
520.454	3211
520.927	3223
521.399	3253
521.871	3280
522.343	3294
522.815	3344
523.287	3342
523.76	3365
524.232	3409
524.704	3430
525.177	3388
525.649	3407
526.122	3448
526.594	3375
527.067	3460
527.539	3489
528.012	3458
528.484	3444
528.957	3453
529.43	3453
529.903	3447
530.375	3548
530.848	3458
531.321	3496
531.794	3487
532.267	3551
532.74	3495
533.213	3493
533.686	3536
534.159	3511
534.632	3580
535.105	3571
535.578	3631
536.051	3642
536.525	3666
536.998	3660
537.471	3734
537.945	3676
538.418	3728
538.891	3744
539.365	3783
539.838	3808
540.312	3819
540.786	3833
541.259	3812
541.733	3873
542.206	3879
542.68	3815
543.154	3808
543.628	3806
544.101	3912
544.575	3884
545.049	3789
545.523	3867
545.997	3824
546.471	3869
546.945	3823
547.419	3868
547.893	3716
548.367	3777
548.842	3743
549.316	3764
549.79	3798
550.264	3754
550.739	3794
551.213	3784
551.687	3775
552.162	3813
552.636	3763
553.111	3733
553.585	3839
554.06	3783
554.534	3859
555.009	3808
555.484	3870
555.958	3920
556.433	3949
556.908	3990
557.383	3933
557.858	4025
558.333	4069
558.807	4014
559.282	4052
559.757	4159
560.232	4180
560.708	4101
561.183	4077
561.658	4130
562.133	4142
562.608	4107
563.083	4205
563.559	4101
564.034	4133
564.509	4143
564.985	4152
565.46	4095
565.936	4163
566.411	4166
566.887	4097
567.362	4120
567.838	4086
568.313	4147
568.789	4114
569.265	4099
569.74	4108
570.216	4071
570.692	4134
571.168	4126
571.644	4129
572.12	4108
572.596	4153
573.071	4132
573.547	4221
574.024	4248
574.5	4265
574.976	4293
575.452	4347
575.928	4356
576.404	4371
576.881	4508
577.357	4444
577.833	4454
578.31	4565
578.786	4626
579.262	4723
579.739	4649
580.215	4767
580.692	4773
581.169	4735
581.645	4759
582.122	4878
582.598	4846
583.075	4853
583.552	4924
584.029	4941
584.506	4900
584.982	4855
585.459	4964
585.936	4893
586.413	4948
586.89	5008
587.367	4935
587.844	5011
588.321	4989
588.799	4994
589.276	4935
589.753	4991
590.23	5035
590.707	5018
591.185	4984
591.662	4959
592.139	5024
592.617	5097
593.094	5112
593.572	5139
594.049	5140
594.527	5184
595.004	5191
595.482	5339
595.96	5280
596.437	5268
596.915	5409
597.393	5350
597.871	5492
598.349	5387
598.826	5490
599.304	5518
599.782	5624
600.26	5553
600.738	5647
601.216	5607
601.694	5672
602.173	5718
602.651	5768
603.129	5687
603.607	5721
604.085	5772
604.564	5755
605.042	5768
605.52	5706
605.999	5851
606.477	5735
606.956	5751
607.434	5771
607.913	5791
608.391	5785
608.87	5793
609.348	5715
609.827	5743
610.306	5742
610.785	5732
611.263	5759
611.742	5748
612.221	5671
612.7	5731
613.179	5757
613.658	5679
614.137	5785
614.616	5834
615.095	5692
615.574	5736
616.053	5756
616.532	5727
617.011	5787
617.491	5787
617.97	5749
618.449	5803
618.928	5878
619.408	5859
619.887	5874
620.367	5845
620.846	5884
621.326	5883
621.805	6003
622.285	5995
622.764	6041
623.244	6047
623.724	6087
624.203	6120
624.683	5994
625.163	6119
625.643	6084
626.123	6046
626.602	6203
627.082	6052
627.562	6043
628.042	6167
628.522	6102
629.002	6107
629.482	6152
629.963	6158
630.443	6078
630.923	6084
631.403	6134
631.883	6111
632.364	6142
632.844	6076
633.324	6061
633.805	6073
634.285	6005
634.766	6000
635.246	6001
635.727	6020
636.207	6029
636.688	6011
637.168	6026
637.649	5969
638.13	5919
638.611	5932
639.091	5934
639.572	5921
640.053	5890
640.534	5940
641.015	5908
641.496	5779
641.977	5880
642.458	5827
642.939	5831
643.42	5839
643.901	5847
644.382	5877
644.863	5863
645.345	5891
645.826	5895
646.307	5886
646.788	5959
647.27	5839
647.751	5896
648.233	5983
648.714	5844
649.196	5975
649.677	5919
650.159	5928
650.64	5877
651.122	6007
651.603	5916
652.085	5970
652.567	5965
653.049	5897
653.53	5903
654.012	5990
654.494	5875
654.976	5915
655.458	5872
655.94	5846
656.422	5950
656.904	5882
657.386	5812
657.868	5788
658.35	5754
658.833	5810
659.315	5830
659.797	5771
660.279	5768
660.762	5814
661.244	5759
661.726	5695
662.209	5704
662.691	5706
663.174	5573
663.656	5591
664.139	5588
664.621	5546
665.104	5505
665.587	5550
666.069	5565
666.552	5549
667.035	5497
667.517	5503
668	5544
668.483	5540
668.966	5488
669.449	5434
669.932	5448
670.415	5520
670.898	5494
671.381	5500
671.864	5506
672.347	5457
672.83	5478
673.313	5516
673.797	5497
674.28	5594
674.763	5580
675.247	5564
675.73	5545
676.213	5597
676.697	5653
677.18	5652
677.664	5657
678.147	5628
678.631	5621
679.114	5642
679.598	5626
680.082	5667
680.565	5648
681.049	5633
681.533	5643
682.017	5698
682.5	5712
682.984	5741
683.468	5732
683.952	5633
684.436	5702
684.92	5621
685.404	5650
685.888	5704
686.372	5649
686.856	5648
687.341	5705
687.825	5630
688.309	5669
688.793	5683
689.278	5603
689.762	5674
690.246	5625
690.731	5627
691.215	5641
691.7	5502
692.184	5574
692.669	5571
693.153	5578
693.638	5479
694.122	5472
694.607	5506
695.092	5457
695.577	5526
696.061	5439
696.546	5415
697.031	5377
697.516	5424
698.001	5438
698.486	5400
698.971	5468
699.456	5349
699.941	5347
700.426	5320
700.911	5366
701.396	5329
701.881	5374
702.366	5354
702.852	5338
703.337	5367
703.822	5359
704.308	5333
704.793	5360
705.278	5352
705.764	5371
706.249	5347
706.735	5335
707.22	5370
707.706	5295
708.191	5378
708.677	5375
709.163	5330
709.648	5357
710.134	5391
710.62	5306
711.106	5288
711.592	5353
712.077	5348
712.563	5233
713.049	5213
713.535	5312
714.021	5278
714.507	5266
714.993	5222
715.479	5299
715.966	5241
716.452	5257
716.938	5277
717.424	5122
717.91	5218
718.397	5158
718.883	5147
719.369	5144
719.856	5102
720.342	5150
720.829	5082
721.315	5099
721.802	5089
722.288	5154
722.775	4971
723.262	4836
723.748	5015
724.235	4963
724.722	5030
725.208	4942
725.695	4962
726.182	4960
726.669	4884
727.156	4893
727.643	4829
728.13	4823
728.617	4798
729.104	4796
729.591	4757
730.078	4792
730.565	4797
731.052	4715
731.539	4735
732.027	4696
732.514	4647
733.001	4712
733.488	4677
733.976	4663
734.463	4625
734.951	4599
735.438	4652
735.926	4621
736.413	4653
736.901	4600
737.388	4646
737.876	4634
738.364	4596
738.851	4616
739.339	4633
739.827	4686
740.314	4561
740.802	4593
741.29	4615
741.778	4553
742.266	4545
742.754	4549
743.242	4591
743.73	4499
744.218	4502
744.706	4434
745.194	4485
745.682	4445
746.17	4461
746.659	4483
747.147	4396
747.635	4422
748.123	4421
748.612	4357
749.1	4303
749.589	4326
750.077	4296
750.566	4273
751.054	4311
751.543	4335
752.031	4242
752.52	4254
753.008	4180
753.497	4173
753.986	4196
754.474	4184
754.963	4229
755.452	4150
755.941	4111
756.43	4094
756.919	4069
757.408	4040
757.896	4058
758.385	4091
758.875	4055
759.364	4033
759.853	4002
760.342	3930
760.831	4018
761.32	3979
761.809	3912
762.299	3942
762.788	3949
763.277	3932
763.767	3848
764.256	3839
764.745	3775
765.235	3852
765.724	3759
766.214	3806
766.703	3794
767.193	3739
767.683	3744
768.172	3669
768.662	3712
769.152	3718
769.641	3737
770.131	3652
770.621	3678
771.111	3648
771.601	3651
772.09	3616
772.58	3573
773.07	3596
773.56	3638
774.05	3571
774.54	3556
775.031	3533
775.521	3485
776.011	3486
776.501	3496
776.991	3431
777.482	3484
777.972	3403
778.462	3409
778.953	3436
779.443	3401
779.933	3373
780.424	3313
780.914	3349
781.405	3366
781.895	3342
782.386	3342
782.877	3335
783.367	3280
783.858	3264
784.349	3266
784.839	3247
785.33	3254
785.821	3227
786.312	3205
786.803	3199
787.293	3186
787.784	3134
788.275	3097
788.766	3078
789.257	3144
789.748	3083
790.24	3061
790.731	3087
791.222	3040
791.713	3033
792.204	3037
792.696	2957
793.187	3007
793.678	2991
794.169	2919
794.661	2956
795.152	2927
795.644	2907
796.135	2894
796.627	2909
797.118	2860
797.61	2855
798.101	2824
798.593	2881
799.085	2831
799.576	2823
800.068	2779
800.56	2776
801.052	2707
801.544	2711
802.035	2738
802.527	2713
803.019	2699
803.511	2672
804.003	2643
804.495	2659
804.987	2627
805.479	2577
805.971	2606
806.464	2627
806.956	2564
807.448	2545
807.94	2540
808.433	2509
808.925	2495
809.417	2478
809.91	2475
810.402	2424
810.894	2439
811.387	2467
811.879	2420
812.372	2414
812.865	2378
813.357	2366
813.85	2367
814.342	2359
814.835	2377
815.328	2390
815.821	2361
816.313	2368
816.806	2371
817.299	2352
817.792	2371
818.285	2337
818.778	2381
819.271	2388
819.764	2371
820.257	2383
820.75	2382
821.243	2373
821.736	2339
822.229	2344
822.722	2336
823.216	2391
