Data from lamp1bck_Subt4__4__66.txt Node

Date: Fri Apr 04 10:06:01 CEST 2025
User: fys-lab-0081
Spectrometer: S04999
Trigger mode: 0
Resolution mode: 1024 pixels
Integration Time (sec): 1.000000E-1
Scans to average: 1
Nonlinearity correction enabled: false
Boxcar width: 0
Baseline correction enabled: true
XAxis mode: Wavelengths
Number of Pixels in Spectrum: 1024
>>>>>Begin Spectral Data<<<<<
336.42	1
336.877	3
337.334	5
337.792	8
338.249	4
338.706	9
339.164	6
339.621	4
340.079	7
340.536	9
340.994	9
341.452	7
341.909	8
342.367	10
342.825	13
343.283	11
343.741	12
344.198	6
344.656	8
345.114	11
345.572	6
346.03	7
346.488	10
346.947	7
347.405	12
347.863	12
348.321	10
348.779	16
349.238	16
349.696	14
350.154	12
350.613	12
351.071	17
351.53	15
351.988	17
352.447	16
352.905	14
353.364	19
353.823	24
354.282	20
354.74	19
355.199	24
355.658	21
356.117	24
356.576	19
357.035	26
357.494	20
357.953	25
358.412	22
358.871	26
359.33	26
359.789	29
360.249	30
360.708	33
361.167	25
361.626	31
362.086	32
362.545	34
363.005	30
363.464	38
363.924	35
364.383	36
364.843	39
365.303	36
365.762	42
366.222	51
366.682	42
367.142	44
367.601	46
368.061	46
368.521	49
368.981	49
369.441	49
369.901	42
370.361	47
370.821	56
371.282	48
371.742	48
372.202	53
372.662	55
373.123	59
373.583	57
374.043	57
374.504	61
374.964	60
375.425	62
375.885	65
376.346	66
376.806	63
377.267	70
377.728	68
378.188	69
378.649	72
379.11	76
379.571	70
380.032	71
380.493	78
380.954	83
381.414	86
381.876	92
382.337	87
382.798	90
383.259	96
383.72	98
384.181	105
384.642	98
385.104	107
385.565	112
386.026	113
386.488	119
386.949	115
387.411	128
387.872	126
388.334	122
388.795	123
389.257	134
389.719	131
390.181	137
390.642	145
391.104	144
391.566	147
392.028	152
392.49	157
392.952	155
393.414	164
393.876	168
394.338	179
394.8	171
395.262	174
395.724	182
396.186	183
396.648	186
397.111	187
397.573	187
398.035	188
398.498	196
398.96	200
399.423	198
399.885	201
400.348	207
400.81	212
401.273	210
401.736	211
402.198	226
402.661	237
403.124	234
403.587	246
404.049	251
404.512	256
404.975	257
405.438	255
405.901	260
406.364	258
406.827	268
407.29	263
407.754	262
408.217	255
408.68	264
409.143	266
409.607	268
410.07	269
410.533	272
410.997	280
411.46	277
411.924	284
412.387	283
412.851	296
413.314	311
413.778	307
414.242	310
414.705	328
415.169	318
415.633	327
416.097	329
416.561	328
417.024	338
417.488	327
417.952	333
418.416	326
418.88	327
419.344	329
419.809	332
420.273	340
420.737	331
421.201	338
421.665	345
422.13	341
422.594	347
423.059	359
423.523	363
423.987	366
424.452	384
424.916	392
425.381	397
425.846	407
426.31	404
426.775	410
427.24	419
427.704	416
428.169	418
428.634	420
429.099	416
429.564	416
430.029	414
430.494	417
430.959	419
431.424	413
431.889	425
432.354	427
432.819	425
433.284	442
433.75	446
434.215	465
434.68	460
435.146	473
435.611	497
436.077	505
436.542	519
437.008	530
437.473	539
437.939	538
438.404	553
438.87	559
439.336	548
439.801	555
440.267	566
440.733	563
441.199	569
441.665	571
442.131	581
442.596	565
443.062	591
443.529	605
443.995	614
444.461	624
444.927	644
445.393	643
445.859	678
446.325	679
446.792	726
447.258	722
447.724	744
448.191	776
448.657	780
449.124	806
449.59	797
450.057	840
450.523	848
450.99	868
451.457	866
451.923	877
452.39	867
452.857	882
453.324	876
453.791	887
454.257	889
454.724	900
455.191	897
455.658	889
456.125	927
456.592	903
457.059	925
457.527	929
457.994	958
458.461	956
458.928	978
459.396	977
459.863	1009
460.33	1002
460.798	1012
461.265	1026
461.732	1013
462.2	1038
462.668	1040
463.135	1046
463.603	1020
464.07	1056
464.538	1019
465.006	1047
465.474	1024
465.941	1026
466.409	1038
466.877	1013
467.345	1043
467.813	1021
468.281	1033
468.749	1043
469.217	1037
469.685	1046
470.153	1057
470.621	1061
471.09	1061
471.558	1108
472.026	1097
472.494	1129
472.963	1147
473.431	1171
473.9	1195
474.368	1227
474.837	1248
475.305	1265
475.774	1300
476.242	1323
476.711	1337
477.18	1367
477.648	1346
478.117	1369
478.586	1351
479.055	1349
479.524	1360
479.993	1352
480.462	1353
480.93	1359
481.399	1357
481.869	1368
482.338	1343
482.807	1362
483.276	1360
483.745	1353
484.214	1386
484.684	1392
485.153	1391
485.622	1400
486.092	1435
486.561	1400
487.031	1447
487.5	1483
487.97	1478
488.439	1503
488.909	1545
489.378	1601
489.848	1604
490.318	1632
490.787	1694
491.257	1734
491.727	1748
492.197	1784
492.667	1779
493.137	1803
493.607	1818
494.077	1830
494.547	1812
495.017	1806
495.487	1839
495.957	1870
496.427	1830
496.897	1825
497.368	1847
497.838	1835
498.308	1857
498.779	1862
499.249	1875
499.719	1887
500.19	1897
500.66	1906
501.131	1921
501.602	1954
502.072	1950
502.543	1961
503.014	2029
503.484	2014
503.955	2065
504.426	2139
504.897	2141
505.368	2178
505.838	2207
506.309	2264
506.78	2342
507.251	2369
507.722	2409
508.194	2466
508.665	2491
509.136	2488
509.607	2574
510.078	2616
510.549	2637
511.021	2700
511.492	2695
511.964	2732
512.435	2761
512.906	2744
513.378	2772
513.849	2813
514.321	2816
514.793	2840
515.264	2864
515.736	2890
516.208	2924
516.679	2951
517.151	2988
517.623	2997
518.095	3049
518.567	3061
519.038	3111
519.51	3106
519.982	3150
520.454	3199
520.927	3212
521.399	3255
521.871	3273
522.343	3287
522.815	3335
523.287	3336
523.76	3355
524.232	3396
524.704	3421
525.177	3367
525.649	3402
526.122	3444
526.594	3365
527.067	3455
527.539	3482
528.012	3450
528.484	3440
528.957	3445
529.43	3446
529.903	3437
530.375	3544
530.848	3445
531.321	3490
531.794	3482
532.267	3544
532.74	3481
533.213	3485
533.686	3529
534.159	3508
534.632	3571
535.105	3574
535.578	3621
536.051	3636
536.525	3661
536.998	3655
537.471	3726
537.945	3664
538.418	3722
538.891	3720
539.365	3790
539.838	3803
540.312	3804
540.786	3821
541.259	3805
541.733	3874
542.206	3869
542.68	3806
543.154	3808
543.628	3804
544.101	3902
544.575	3879
545.049	3767
545.523	3858
545.997	3822
546.471	3860
546.945	3815
547.419	3867
547.893	3709
548.367	3780
548.842	3736
549.316	3759
549.79	3795
550.264	3757
550.739	3785
551.213	3768
551.687	3771
552.162	3796
552.636	3758
553.111	3736
553.585	3830
554.06	3770
554.534	3850
555.009	3807
555.484	3864
555.958	3910
556.433	3934
556.908	3985
557.383	3922
557.858	4028
558.333	4058
558.807	4011
559.282	4045
559.757	4156
560.232	4181
560.708	4091
561.183	4081
561.658	4121
562.133	4138
562.608	4100
563.083	4200
563.559	4095
564.034	4127
564.509	4132
564.985	4142
565.46	4094
565.936	4150
566.411	4158
566.887	4090
567.362	4124
567.838	4082
568.313	4143
568.789	4105
569.265	4089
569.74	4098
570.216	4070
570.692	4134
571.168	4121
571.644	4121
572.12	4096
572.596	4144
573.071	4127
573.547	4206
574.024	4241
574.5	4260
574.976	4282
575.452	4338
575.928	4351
576.404	4362
576.881	4505
577.357	4431
577.833	4447
578.31	4557
578.786	4617
579.262	4710
579.739	4643
580.215	4766
580.692	4762
581.169	4732
581.645	4758
582.122	4878
582.598	4835
583.075	4853
583.552	4906
584.029	4926
584.506	4895
584.982	4845
585.459	4962
585.936	4888
586.413	4948
586.89	4990
587.367	4921
587.844	5008
588.321	4986
588.799	4987
589.276	4924
589.753	4995
590.23	5016
590.707	5008
591.185	4982
591.662	4953
592.139	5013
592.617	5093
593.094	5087
593.572	5119
594.049	5132
594.527	5182
595.004	5183
595.482	5326
595.96	5284
596.437	5267
596.915	5401
597.393	5335
597.871	5474
598.349	5383
598.826	5491
599.304	5510
599.782	5621
600.26	5533
600.738	5630
601.216	5601
601.694	5665
602.173	5726
602.651	5761
603.129	5676
603.607	5705
604.085	5760
604.564	5767
605.042	5755
605.52	5707
605.999	5841
606.477	5732
606.956	5753
607.434	5769.5
607.913	5786
608.391	5768
608.87	5790
609.348	5718
609.827	5742
610.306	5740
610.785	5727
611.263	5755
611.742	5738
612.221	5664
612.7	5731
613.179	5749
613.658	5675
614.137	5792
614.616	5820
615.095	5693
615.574	5738
616.053	5763
616.532	5718
617.011	5778
617.491	5784
617.97	5735
618.449	5801
618.928	5868
619.408	5853
619.887	5855
620.367	5840
620.846	5875
621.326	5875
621.805	5990
622.285	5990
622.764	6036
623.244	6040
623.724	6063
624.203	6114
624.683	5987
625.163	6103
625.643	6081
626.123	6035
626.602	6200
627.082	6039
627.562	6037
628.042	6162
628.522	6094
629.002	6105
629.482	6149
629.963	6158
630.443	6058
630.923	6075
631.403	6117
631.883	6106
632.364	6138
632.844	6069
633.324	6063
633.805	6061
634.285	6008
634.766	5985
635.246	6006
635.727	6013
636.207	6010
636.688	6006
637.168	6015
637.649	5968
638.13	5917
638.611	5920
639.091	5918
639.572	5914
640.053	5882
640.534	5933
641.015	5908
641.496	5773
641.977	5870
642.458	5821
642.939	5824
643.42	5824
643.901	5844
644.382	5870
644.863	5867
645.345	5894
645.826	5888
646.307	5879
646.788	5940
647.27	5840
647.751	5902
648.233	5969
648.714	5845
649.196	5963
649.677	5914
650.159	5922
650.64	5869
651.122	5999
651.603	5915
652.085	5959
652.567	5959
653.049	5898
653.53	5889
654.012	5992
654.494	5882
654.976	5897
655.458	5862
655.94	5845
656.422	5938
656.904	5877
657.386	5816
657.868	5779
658.35	5746
658.833	5806
659.315	5833
659.797	5760
660.279	5757
660.762	5806
661.244	5761
661.726	5691
662.209	5694
662.691	5692
663.174	5565
663.656	5581
664.139	5579
664.621	5539
665.104	5493
665.587	5552
666.069	5560
666.552	5542
667.035	5491
667.517	5501
668	5540
668.483	5534
668.966	5482
669.449	5435
669.932	5443
670.415	5515
670.898	5481
671.381	5504
671.864	5511
672.347	5467
672.83	5469
673.313	5498
673.797	5489
674.28	5583
674.763	5567
675.247	5547
675.73	5537
676.213	5588
676.697	5656
677.18	5645
677.664	5645
678.147	5631
678.631	5619
679.114	5647
679.598	5625
680.082	5665
680.565	5652
681.049	5627
681.533	5618
682.017	5700
682.5	5699
682.984	5738
683.468	5729
683.952	5619
684.436	5700
684.92	5619
685.404	5645
685.888	5684
686.372	5647
686.856	5650
687.341	5696
687.825	5613
688.309	5662
688.793	5684
689.278	5604
689.762	5663
690.246	5627
690.731	5621
691.215	5630
691.7	5488
692.184	5568
692.669	5570
693.153	5578
693.638	5482
694.122	5463
694.607	5508
695.092	5454
695.577	5528
696.061	5444
696.546	5414
697.031	5381
697.516	5421
698.001	5435
698.486	5397
698.971	5452
699.456	5343
699.941	5340
700.426	5329
700.911	5370
701.396	5327
701.881	5369
702.366	5345
702.852	5333
703.337	5364
703.822	5345
704.308	5330
704.793	5349
705.278	5363
705.764	5361
706.249	5322
706.735	5332
707.22	5376
707.706	5291
708.191	5379
708.677	5365
709.163	5329
709.648	5363
710.134	5396
710.62	5314
711.106	5291
711.592	5345
712.077	5349
712.563	5221
713.049	5217
713.535	5317
714.021	5276
714.507	5264
714.993	5215
715.479	5295
715.966	5245
716.452	5257
716.938	5277
717.424	5103
717.91	5208
718.397	5170
718.883	5145
719.369	5140
719.856	5094
720.342	5153
720.829	5079
721.315	5104
721.802	5075
722.288	5148
722.775	4980
723.262	4838
723.748	5010
724.235	4955
724.722	5030
725.208	4943
725.695	4961
726.182	4963
726.669	4887
727.156	4884
727.643	4822
728.13	4824
728.617	4789
729.104	4797
729.591	4754
730.078	4793
730.565	4789
731.052	4707
731.539	4730
732.027	4696
732.514	4642
733.001	4701
733.488	4674
733.976	4654
734.463	4617
734.951	4595
735.438	4652
735.926	4608
736.413	4653
736.901	4605
737.388	4653
737.876	4630
738.364	4590
738.851	4620
739.339	4624
739.827	4680
740.314	4553
740.802	4587
741.29	4617
741.778	4544
742.266	4541
742.754	4549
743.242	4578
743.73	4494
744.218	4488
744.706	4436
745.194	4474
745.682	4440
746.17	4464
746.659	4486
747.147	4385
747.635	4421
748.123	4410
748.612	4349
749.1	4298
749.589	4317
750.077	4294
750.566	4283
751.054	4305
751.543	4326
752.031	4238
752.52	4250
753.008	4184
753.497	4171
753.986	4193
754.474	4183
754.963	4215
755.452	4157
755.941	4103
756.43	4089
756.919	4064
757.408	4037
757.896	4066
758.385	4086
758.875	4056
759.364	4025
759.853	4003
760.342	3930
760.831	4000
761.32	3973
761.809	3917
762.299	3946
762.788	3943
763.277	3929
763.767	3847
764.256	3837
764.745	3783
765.235	3847
765.724	3755
766.214	3812
766.703	3798
767.193	3731
767.683	3743
768.172	3676
768.662	3717
769.152	3710
769.641	3741
770.131	3646
770.621	3686
771.111	3647
771.601	3650
772.09	3613
772.58	3574
773.07	3590
773.56	3642
774.05	3573
774.54	3554
775.031	3532
775.521	3499
776.011	3483
776.501	3491
776.991	3429
777.482	3478
777.972	3395
778.462	3407
778.953	3440
779.443	3399
779.933	3369
780.424	3314
780.914	3352
781.405	3366
781.895	3342
782.386	3341
782.877	3331
783.367	3279
783.858	3263
784.349	3261
784.839	3229
785.33	3248
785.821	3217
786.312	3208
786.803	3188
787.293	3194
787.784	3139
788.275	3093
788.766	3078
789.257	3144
789.748	3084
790.24	3060
790.731	3086
791.222	3031
791.713	3032
792.204	3038
792.696	2969
793.187	3003
793.678	2985
794.169	2917
794.661	2955
795.152	2928
795.644	2898
796.135	2894
796.627	2917
797.118	2865
797.61	2856
798.101	2834
798.593	2876
799.085	2829
799.576	2816
800.068	2785
800.56	2783
801.052	2721
801.544	2714
802.035	2737
802.527	2711
803.019	2697
803.511	2668
804.003	2639
804.495	2656
804.987	2634
805.479	2579
805.971	2602
806.464	2625
806.956	2560
807.448	2544
807.94	2546
808.433	2509
808.925	2491
809.417	2474
809.91	2469
810.402	2413
810.894	2439
811.387	2462
811.879	2415
812.372	2413
812.865	2380
813.357	2366
813.85	2363
814.342	2357
814.835	2368
815.328	2391
815.821	2358
816.313	2372
816.806	2372
817.299	2357
817.792	2365
818.285	2344
818.778	2379
819.271	2398
819.764	2368
820.257	2384
820.75	2381
821.243	2375
821.736	2327
822.229	2348
822.722	2339
823.216	2389
