Data from lamp3bck_Subt4__9__257.txt Node

Date: Fri Apr 04 11:04:19 CEST 2025
User: fys-lab-0081
Spectrometer: S04999
Trigger mode: 0
Resolution mode: 1024 pixels
Integration Time (sec): 1.000000E-1
Scans to average: 1
Nonlinearity correction enabled: false
Boxcar width: 0
Baseline correction enabled: true
XAxis mode: Wavelengths
Number of Pixels in Spectrum: 1024
>>>>>Begin Spectral Data<<<<<
336.42	2
336.877	2
337.334	5
337.792	8
338.249	6
338.706	6
339.164	6
339.621	3
340.079	6
340.536	4
340.994	5
341.452	10
341.909	8
342.367	6
342.825	11
343.283	8
343.741	10
344.198	5
344.656	5
345.114	12
345.572	6
346.03	13
346.488	7
346.947	7
347.405	12
347.863	16
348.321	10
348.779	10
349.238	12
349.696	15
350.154	8
350.613	11
351.071	15
351.53	16
351.988	18
352.447	14
352.905	15
353.364	18
353.823	26
354.282	18
354.74	15
355.199	19
355.658	21
356.117	24
356.576	18
357.035	20
357.494	23
357.953	21
358.412	22
358.871	24
359.33	25
359.789	27
360.249	27
360.708	34
361.167	25
361.626	33
362.086	30
362.545	29
363.005	29
363.464	36
363.924	28
364.383	36
364.843	36
365.303	34
365.762	37
366.222	41
366.682	41
367.142	37
367.601	44
368.061	46
368.521	45
368.981	44
369.441	45
369.901	41
370.361	49
370.821	51
371.282	45
371.742	44
372.202	45
372.662	49
373.123	52
373.583	48
374.043	58
374.504	57
374.964	55
375.425	56
375.885	63
376.346	63
376.806	59
377.267	66
377.728	57
378.188	65
378.649	71
379.11	69
379.571	64
380.032	71
380.493	69
380.954	76
381.414	74
381.876	84
382.337	78
382.798	86
383.259	91
383.72	85
384.181	96
384.642	94
385.104	101
385.565	103
386.026	105
386.488	110
386.949	109
387.411	120
387.872	114
388.334	113
388.795	117
389.257	121
389.719	122
390.181	129
390.642	129
391.104	132
391.566	135
392.028	134
392.49	137
392.952	141
393.414	145
393.876	158
394.338	155
394.8	153
395.262	160
395.724	168
396.186	167
396.648	170
397.111	167
397.573	170
398.035	168
398.498	179
398.96	180
399.423	179
399.885	185
400.348	186
400.81	189
401.273	189
401.736	193
402.198	205
402.661	206
403.124	210
403.587	217
404.049	223.5
404.512	230
404.975	235
405.438	232
405.901	231
406.364	234
406.827	241
407.29	232
407.754	235
408.217	229
408.68	238
409.143	237
409.607	237
410.07	237
410.533	244
410.997	248
411.46	248
411.924	248
412.387	250
412.851	264
413.314	268
413.778	272
414.242	277
414.705	291
415.169	280
415.633	286
416.097	287
416.561	290
417.024	293
417.488	288
417.952	290
418.416	286
418.88	292
419.344	288
419.809	287
420.273	299
420.737	297
421.201	296
421.665	304
422.13	296
422.594	311
423.059	318
423.523	316
423.987	320
424.452	339
424.916	337
425.381	349
425.846	360
426.31	353
426.775	359
427.24	370
427.704	362
428.169	370
428.634	368
429.099	357
429.564	360
430.029	365
430.494	365
430.959	369
431.424	365
431.889	372
432.354	371
432.819	370
433.284	386
433.75	386
434.215	401
434.68	405
435.146	409
435.611	429
436.077	436
436.542	449
437.008	463
437.473	468
437.939	471
438.404	485
438.87	485
439.336	472
439.801	474
440.267	487
440.733	489
441.199	490
441.665	489
442.131	505
442.596	495
443.062	509
443.529	518
443.995	530
444.461	535
444.927	552
445.393	561
445.859	585
446.325	588
446.792	626
447.258	622
447.724	638
448.191	666
448.657	670
449.124	688
449.59	686
450.057	723
450.523	722
450.99	741
451.457	738
451.923	748
452.39	738
452.857	756
453.324	753
453.791	762
454.257	763
454.724	770
455.191	765
455.658	757
456.125	787
456.592	773
457.059	789
457.527	791
457.994	817
458.461	811
458.928	824
459.396	827
459.863	858
460.33	853
460.798	857
461.265	872
461.732	861
462.2	881
462.668	875
463.135	889
463.603	862
464.07	896
464.538	860
465.006	887
465.474	862
465.941	873
466.409	880
466.877	859
467.345	879
467.813	864
468.281	873
468.749	879
469.217	877
469.685	884
470.153	896
470.621	893
471.09	904
471.558	935
472.026	929
472.494	954
472.963	962
473.431	991
473.9	1008
474.368	1029
474.837	1047
475.305	1068
475.774	1087
476.242	1113
476.711	1120
477.18	1144
477.648	1135
478.117	1150
478.586	1138
479.055	1135
479.524	1150
479.993	1146
480.462	1146
480.93	1143
481.399	1147
481.869	1152
482.338	1143
482.807	1149
483.276	1145
483.745	1141
484.214	1170
484.684	1180
485.153	1175
485.622	1177
486.092	1212
486.561	1185
487.031	1227
487.5	1245
487.97	1247
488.439	1272
488.909	1302
489.378	1349
489.848	1351
490.318	1373
490.787	1432
491.257	1459
491.727	1473
492.197	1497
492.667	1501
493.137	1521
493.607	1530
494.077	1536
494.547	1521
495.017	1512
495.487	1545
495.957	1564
496.427	1534
496.897	1533
497.368	1550
497.838	1539
498.308	1561
498.779	1563
499.249	1565
499.719	1574
500.19	1583
500.66	1596
501.131	1608
501.602	1634
502.072	1633
502.543	1631
503.014	1696
503.484	1691
503.955	1737
504.426	1784
504.897	1788
505.368	1825
505.838	1845
506.309	1901
506.78	1957
507.251	1981
507.722	2019
508.194	2067
508.665	2091
509.136	2090
509.607	2161
510.078	2195
510.549	2212
511.021	2267
511.492	2263
511.964	2285
512.435	2315
512.906	2298
513.378	2319
513.849	2356
514.321	2359
514.793	2384
515.264	2394
515.736	2414
516.208	2453
516.679	2472
517.151	2499
517.623	2515
518.095	2549
518.567	2560
519.038	2606
519.51	2601
519.982	2637
520.454	2675
520.927	2679
521.399	2702
521.871	2725
522.343	2741
522.815	2779
523.287	2784
523.76	2795
524.232	2839
524.704	2857
525.177	2820
525.649	2831
526.122	2869
526.594	2798
527.067	2868
527.539	2896
528.012	2880
528.484	2874
528.957	2868
529.43	2862
529.903	2857
530.375	2948
530.848	2863
531.321	2895
531.794	2893
532.267	2952
532.74	2906
533.213	2899
533.686	2940
534.159	2923
534.632	2987
535.105	2985
535.578	3013
536.051	3030
536.525	3046
536.998	3036
537.471	3092
537.945	3047
538.418	3091
538.891	3098
539.365	3154
539.838	3175
540.312	3172
540.786	3190
541.259	3180
541.733	3233
542.206	3220
542.68	3160
543.154	3158
543.628	3162
544.101	3242
544.575	3220
545.049	3147
545.523	3200
545.997	3176
546.471	3200
546.945	3165
547.419	3220
547.893	3087
548.367	3139
548.842	3110
549.316	3123
549.79	3136
550.264	3107
550.739	3136
551.213	3138
551.687	3136
552.162	3169
552.636	3126
553.111	3124
553.585	3191
554.06	3141
554.534	3206
555.009	3179
555.484	3224
555.958	3259
556.433	3269
556.908	3311
557.383	3266
557.858	3350
558.333	3368
558.807	3321
559.282	3353
559.757	3440
560.232	3458
560.708	3394
561.183	3382
561.658	3430
562.133	3421
562.608	3398
563.083	3489
563.559	3394
564.034	3412
564.509	3411
564.985	3423
565.46	3376
565.936	3426
566.411	3440
566.887	3378
567.362	3398
567.838	3377
568.313	3432
568.789	3395
569.265	3389
569.74	3415
570.216	3380
570.692	3435
571.168	3415
571.644	3425
572.12	3402
572.596	3437
573.071	3415
573.547	3502
574.024	3523
574.5	3529
574.976	3545
575.452	3596
575.928	3612
576.404	3627
576.881	3747
577.357	3686
577.833	3710
578.31	3795
578.786	3852
579.262	3924
579.739	3857
580.215	3964
580.692	3963
581.169	3947
581.645	3955
582.122	4051
582.598	4025
583.075	4033
583.552	4069
584.029	4073
584.506	4046
584.982	4023
585.459	4113
585.936	4057
586.413	4094
586.89	4137
587.367	4078
587.844	4135
588.321	4114
588.799	4125
589.276	4075
589.753	4131
590.23	4149
590.707	4133
591.185	4130
591.662	4111
592.139	4165
592.617	4214
593.094	4217
593.572	4234
594.049	4266
594.527	4301
595.004	4291
595.482	4400
595.96	4362
596.437	4357
596.915	4465
597.393	4406
597.871	4502
598.349	4429
598.826	4519
599.304	4541
599.782	4626
600.26	4554
600.738	4639
601.216	4599
601.694	4642
602.173	4695
602.651	4729
603.129	4672
603.607	4711
604.085	4741
604.564	4741
605.042	4744
605.52	4709
605.999	4812
606.477	4728
606.956	4714
607.434	4726
607.913	4738
608.391	4729
608.87	4746
609.348	4679
609.827	4701
610.306	4712
610.785	4705
611.263	4730
611.742	4704
612.221	4622
612.7	4671
613.179	4703
613.658	4635
614.137	4737
614.616	4773
615.095	4664
615.574	4710
616.053	4737
616.532	4705
617.011	4732
617.491	4723
617.97	4707
618.449	4763
618.928	4804
619.408	4793
619.887	4803
620.367	4807
620.846	4855
621.326	4858
621.805	4949
622.285	4931
622.764	4958
623.244	4966
623.724	5001
624.203	5030
624.683	4925
625.163	5037
625.643	5017
626.123	4972
626.602	5094
627.082	4962
627.562	4958
628.042	5066
628.522	5025
629.002	5019
629.482	5059
629.963	5026
630.443	4967
630.923	4976
631.403	5025
631.883	5011
632.364	5025
632.844	4974
633.324	4963
633.805	4967
634.285	4924
634.766	4904
635.246	4903
635.727	4898
636.207	4899
636.688	4912
637.168	4930
637.649	4863
638.13	4817
638.611	4834
639.091	4852
639.572	4854
640.053	4827
640.534	4860
641.015	4824
641.496	4738
641.977	4812
642.458	4754
642.939	4749
643.42	4756
643.901	4777
644.382	4807
644.863	4801
645.345	4799
645.826	4785
646.307	4791
646.788	4847
647.27	4764
647.751	4809
648.233	4869
648.714	4769
649.196	4883
649.677	4846
650.159	4861
650.64	4806
651.122	4877
651.603	4790
652.085	4831
652.567	4827
653.049	4759
653.53	4772
654.012	4833
654.494	4747
654.976	4768
655.458	4738
655.94	4728
656.422	4814
656.904	4764
657.386	4698
657.868	4693
658.35	4673
658.833	4719
659.315	4729
659.797	4663
660.279	4667
660.762	4700
661.244	4669
661.726	4617
662.209	4630
662.691	4616
663.174	4523
663.656	4542
664.139	4540
664.621	4522
665.104	4477
665.587	4506
666.069	4490
666.552	4469
667.035	4418
667.517	4446
668	4487
668.483	4474
668.966	4422
669.449	4397
669.932	4417
670.415	4486
670.898	4450
671.381	4449
671.864	4451
672.347	4411
672.83	4421
673.313	4436
673.797	4417
674.28	4495
674.763	4470
675.247	4458
675.73	4449
676.213	4494
676.697	4549
677.18	4545
677.664	4542
678.147	4525
678.631	4536
679.114	4558
679.598	4551
680.082	4577
680.565	4567
681.049	4539
681.533	4553
682.017	4610
682.5	4605
682.984	4624
683.468	4603
683.952	4505
684.436	4563
684.92	4511
685.404	4535
685.888	4580
686.372	4544
686.856	4533
687.341	4586
687.825	4515
688.309	4547
688.793	4545
689.278	4480
689.762	4525
690.246	4512
690.731	4522
691.215	4533
691.7	4403
692.184	4443
692.669	4426
693.153	4446
693.638	4372
694.122	4383
694.607	4420
695.092	4354
695.577	4393
696.061	4319
696.546	4318
697.031	4285
697.516	4322
698.001	4337
698.486	4292
698.971	4339
699.456	4241
699.941	4237
700.426	4241
700.911	4273
701.396	4239
701.881	4245
702.366	4209
702.852	4196
703.337	4216
703.822	4208
704.308	4198
704.793	4222
705.278	4209
705.764	4224
706.249	4188
706.735	4182
707.22	4221
707.706	4162
708.191	4228
708.677	4222
709.163	4189
709.648	4212
710.134	4251
710.62	4189
711.106	4171
711.592	4216
712.077	4214
712.563	4111
713.049	4116
713.535	4176
714.021	4147
714.507	4129
714.993	4096
715.479	4148
715.966	4083
716.452	4087
716.938	4096
717.424	3981
717.91	4072
718.397	4025
718.883	4001
719.369	3997
719.856	3987
720.342	4016
720.829	3954
721.315	3960
721.802	3936
722.288	3984
722.775	3849
723.262	3748
723.748	3902
724.235	3856
724.722	3903
725.208	3831
725.695	3840
726.182	3834
726.669	3776
727.156	3780
727.643	3747
728.13	3756
728.617	3730
729.104	3733
729.591	3695
730.078	3730
730.565	3739
731.052	3679
731.539	3684
732.027	3654
732.514	3598
733.001	3644
733.488	3618
733.976	3611
734.463	3601
734.951	3591
735.438	3631
735.926	3578
736.413	3589
736.901	3533
737.388	3563
737.876	3536
738.364	3500
738.851	3505
739.339	3495
739.827	3531
740.314	3440
740.802	3485
741.29	3497
741.778	3449
742.266	3457
742.754	3463
743.242	3485
743.73	3420
744.218	3425
744.706	3375
745.194	3423
745.682	3394
746.17	3417
746.659	3436
747.147	3348
747.635	3359
748.123	3358
748.612	3308
749.1	3287
749.589	3300
750.077	3278
750.566	3242
751.054	3257
751.543	3274
752.031	3204
752.52	3203
753.008	3136
753.497	3128
753.986	3132
754.474	3116
754.963	3140
755.452	3098
755.941	3073
756.43	3051
756.919	3035
757.408	3012
757.896	3027
758.385	3035
758.875	2998
759.364	2983
759.853	2962
760.342	2926
760.831	2996
761.32	2974
761.809	2933
762.299	2940
762.788	2945
763.277	2917
763.767	2865
764.256	2862
764.745	2813
765.235	2853
765.724	2779
766.214	2816
766.703	2799
767.193	2754
767.683	2757
768.172	2710
768.662	2740
769.152	2735
769.641	2734
770.131	2672
770.621	2694
771.111	2653
771.601	2655
772.09	2636
772.58	2609
773.07	2615
773.56	2645
774.05	2586
774.54	2568
775.031	2552
775.521	2531
776.011	2529
776.501	2544
776.991	2510
777.482	2543
777.972	2462
778.462	2463
778.953	2485
779.443	2461
779.933	2461
780.424	2426
780.914	2437
781.405	2439
781.895	2415
782.386	2413
782.877	2385
783.367	2346
783.858	2333
784.349	2339
784.839	2324
785.33	2338
785.821	2317
786.312	2304
786.803	2300
787.293	2289
787.784	2258
788.275	2236
788.766	2219
789.257	2264
789.748	2205
790.24	2182
790.731	2203
791.222	2168
791.713	2157
792.204	2165
792.696	2110
793.187	2144
793.678	2124
794.169	2082
794.661	2107
795.152	2090
795.644	2068
796.135	2062
796.627	2076
797.118	2031
797.61	2025
798.101	1999
798.593	2022
799.085	1988
799.576	1979
800.068	1948
800.56	1951
801.052	1909
801.544	1900
802.035	1915
802.527	1890
803.019	1881
803.511	1868
804.003	1861
804.495	1861
804.987	1841
805.479	1802
805.971	1817
806.464	1827
806.956	1782
807.448	1781
807.94	1778
808.433	1762
808.925	1757
809.417	1747
809.91	1753
810.402	1712
810.894	1728
811.387	1738
811.879	1706
812.372	1698
812.865	1668
813.357	1660
813.85	1655
814.342	1651
814.835	1649
815.328	1658
815.821	1630
816.313	1630
816.806	1628
817.299	1616
817.792	1633
818.285	1617
818.778	1647
819.271	1647
819.764	1622
820.257	1619
820.75	1614
821.243	1605
821.736	1584
822.229	1599
822.722	1601
823.216	1631
