Data from lamp5helium_zwak_Subt4__30__185.txt Node

Date: Wed Apr 09 10:14:03 CEST 2025
User: fys-lab-0081
Spectrometer: S04999
Trigger mode: 0
Resolution mode: 1024 pixels
Integration Time (sec): 1.000000E-1
Scans to average: 1
Nonlinearity correction enabled: false
Boxcar width: 0
Baseline correction enabled: true
XAxis mode: Wavelengths
Number of Pixels in Spectrum: 1024
>>>>>Begin Spectral Data<<<<<
336.42	1
336.877	-1
337.334	1
337.792	1
338.249	5
338.706	5
339.164	1
339.621	1
340.079	2
340.536	4
340.994	4
341.452	-4
341.909	0
342.367	-2
342.825	1
343.283	0
343.741	2
344.198	-1
344.656	-2
345.114	-4
345.572	-1
346.03	0
346.488	4
346.947	-5
347.405	0
347.863	-1
348.321	4
348.779	0
349.238	5
349.696	0
350.154	-2
350.613	1
351.071	-1
351.53	4
351.988	-1
352.447	0
352.905	2
353.364	1
353.823	0
354.282	0
354.74	-1
355.199	2
355.658	2
356.117	0
356.576	6
357.035	4
357.494	1
357.953	2
358.412	3
358.871	-7
359.33	2
359.789	4
360.249	-3
360.708	7
361.167	2
361.626	4
362.086	1
362.545	2
363.005	5
363.464	-2
363.924	0
364.383	8
364.843	5
365.303	3
365.762	2
366.222	-3
366.682	5
367.142	2
367.601	2
368.061	3
368.521	8
368.981	2
369.441	3
369.901	7
370.361	3
370.821	0
371.282	5
371.742	8
372.202	6
372.662	6
373.123	1
373.583	1
374.043	4
374.504	-5
374.964	2
375.425	2
375.885	6
376.346	8
376.806	5
377.267	2
377.728	6
378.188	2
378.649	5
379.11	5
379.571	5
380.032	2
380.493	-2
380.954	7
381.414	3
381.876	4
382.337	6
382.798	10
383.259	9
383.72	5
384.181	6
384.642	5
385.104	11
385.565	17
386.026	5
386.488	5
386.949	6
387.411	7
387.872	5
388.334	11
388.795	13
389.257	10
389.719	12
390.181	3
390.642	11
391.104	8
391.566	5
392.028	13
392.49	8
392.952	13
393.414	15
393.876	10
394.338	7
394.8	7
395.262	11
395.724	6
396.186	16
396.648	12
397.111	12
397.573	17
398.035	11
398.498	13
398.96	6
399.423	12
399.885	16
400.348	13
400.81	23
401.273	7
401.736	14
402.198	17
402.661	13
403.124	13
403.587	14
404.049	13.5
404.512	13
404.975	18
405.438	18
405.901	15
406.364	18
406.827	19
407.29	19
407.754	17
408.217	22
408.68	17
409.143	16
409.607	20
410.07	17
410.533	20
410.997	18
411.46	14
411.924	20
412.387	22
412.851	23
413.314	24
413.778	20
414.242	21
414.705	24
415.169	20
415.633	20
416.097	23
416.561	24
417.024	31
417.488	29
417.952	27
418.416	28
418.88	22
419.344	27
419.809	25
420.273	26
420.737	22
421.201	19
421.665	28
422.13	27
422.594	29
423.059	28
423.523	29
423.987	29
424.452	27
424.916	30
425.381	31
425.846	32
426.31	33
426.775	27
427.24	35
427.704	27
428.169	32
428.634	36
429.099	33
429.564	30
430.029	38
430.494	37
430.959	36
431.424	33
431.889	34
432.354	37
432.819	35
433.284	36
433.75	39
434.215	37
434.68	41
435.146	38
435.611	42
436.077	43
436.542	45
437.008	46
437.473	44
437.939	49
438.404	49
438.87	52
439.336	47
439.801	48
440.267	46
440.733	61
441.199	54
441.665	47
442.131	55
442.596	57
443.062	48
443.529	57
443.995	56
444.461	55
444.927	64
445.393	63
445.859	63
446.325	68
446.792	76
447.258	75
447.724	69
448.191	73
448.657	77
449.124	80
449.59	78
450.057	84
450.523	79
450.99	84
451.457	85
451.923	88
452.39	82
452.857	82
453.324	81
453.791	91
454.257	89
454.724	90
455.191	91
455.658	91
456.125	95
456.592	89
457.059	97
457.527	95
457.994	101
458.461	99
458.928	100
459.396	100
459.863	104
460.33	106
460.798	103
461.265	102
461.732	108
462.2	108
462.668	110
463.135	113
463.603	109
464.07	106
464.538	113
465.006	116
465.474	109
465.941	112
466.409	111
466.877	110
467.345	117
467.813	114
468.281	118
468.749	115
469.217	114
469.685	115
470.153	123
470.621	122
471.09	124
471.558	127
472.026	125
472.494	127
472.963	130
473.431	137
473.9	142
474.368	145
474.837	145
475.305	147
475.774	153
476.242	158
476.711	155
477.18	161
477.648	162
478.117	164
478.586	162
479.055	163
479.524	167
479.993	161
480.462	160
480.93	165
481.399	162
481.869	165
482.338	166
482.807	165
483.276	166
483.745	170
484.214	166
484.684	173
485.153	174
485.622	172
486.092	177
486.561	177
487.031	180
487.5	184
487.97	194
488.439	195
488.909	202
489.378	211
489.848	208
490.318	215
490.787	218
491.257	230
491.727	228
492.197	241
492.667	232
493.137	228
493.607	242
494.077	244
494.547	240
495.017	243
495.487	245
495.957	249
496.427	246
496.897	238
497.368	248
497.838	253
498.308	254
498.779	254
499.249	258
499.719	253
500.19	263
500.66	264
501.131	265
501.602	268
502.072	268
502.543	275
503.014	287
503.484	293
503.955	292
504.426	305
504.897	308
505.368	314
505.838	319
506.309	326
506.78	336
507.251	351
507.722	354
508.194	362
508.665	367
509.136	361
509.607	383
510.078	389
510.549	392
511.021	400
511.492	397
511.964	411
512.435	415
512.906	410
513.378	419
513.849	420
514.321	425
514.793	429
515.264	433
515.736	435
516.208	445
516.679	449
517.151	451
517.623	458
518.095	467
518.567	474
519.038	483
519.51	483
519.982	499
520.454	501
520.927	505
521.399	515
521.871	520
522.343	526
522.815	526
523.287	521
523.76	535
524.232	545
524.704	540
525.177	537
525.649	541
526.122	548
526.594	544
527.067	560
527.539	566
528.012	559
528.484	562
528.957	570
529.43	563
529.903	559
530.375	579
530.848	569
531.321	582
531.794	574
532.267	590
532.74	582
533.213	583
533.686	593
534.159	590
534.632	606
535.105	611
535.578	621
536.051	619
536.525	627
536.998	634
537.471	643
537.945	639
538.418	651
538.891	656
539.365	655
539.838	670
540.312	672
540.786	674
541.259	675
541.733	680
542.206	683
542.68	671
543.154	673
543.628	679
544.101	697
544.575	694
545.049	679
545.523	688
545.997	693
546.471	702
546.945	693
547.419	705
547.893	685
548.367	694
548.842	691
549.316	693
549.79	702
550.264	694
550.739	705
551.213	700
551.687	695
552.162	706
552.636	701
553.111	707
553.585	731
554.06	719
554.534	723
555.009	724
555.484	748
555.958	756
556.433	753
556.908	757
557.383	757
557.858	782
558.333	784
558.807	784
559.282	785
559.757	816
560.232	818
560.708	799
561.183	792
561.658	803
562.133	804
562.608	800
563.083	826
563.559	803
564.034	810
564.509	809
564.985	812
565.46	809
565.936	821
566.411	831
566.887	828
567.362	827
567.838	821
568.313	838
568.789	828
569.265	826
569.74	838
570.216	832
570.692	844
571.168	843
571.644	844
572.12	840
572.596	843
573.071	859
573.547	876
574.024	885
574.5	901
574.976	908
575.452	926
575.928	922
576.404	928
576.881	957
577.357	944
577.833	950
578.31	975
578.786	998
579.262	1013
579.739	1006
580.215	1028
580.692	1015
581.169	1015
581.645	1016
582.122	1046
582.598	1051
583.075	1046
583.552	1060
584.029	1059
584.506	1056
584.982	1046
585.459	1079
585.936	1064
586.413	1081
586.89	1099
587.367	1088
587.844	1109
588.321	1105
588.799	1099
589.276	1091
589.753	1101
590.23	1114
590.707	1120
591.185	1110
591.662	1103
592.139	1129
592.617	1141
593.094	1148
593.572	1148
594.049	1164
594.527	1174
595.004	1179
595.482	1212
595.96	1199
596.437	1204
596.915	1236
597.393	1221
597.871	1250
598.349	1231
598.826	1258
599.304	1261
599.782	1293
600.26	1277
600.738	1299
601.216	1304
601.694	1324
602.173	1342
602.651	1340
603.129	1318
603.607	1337
604.085	1337
604.564	1339
605.042	1338
605.52	1335
605.999	1377
606.477	1337
606.956	1346
607.434	1354.5
607.913	1363
608.391	1366
608.87	1368
609.348	1355
609.827	1354
610.306	1360
610.785	1375
611.263	1382
611.742	1366
612.221	1355
612.7	1371
613.179	1381
613.658	1363
614.137	1383
614.616	1395
615.095	1363
615.574	1390
616.053	1406
616.532	1393
617.011	1398
617.491	1410
617.97	1418
618.449	1440
618.928	1449
619.408	1435
619.887	1453
620.367	1457
620.846	1482
621.326	1473
621.805	1513
622.285	1507
622.764	1516
623.244	1517
623.724	1528
624.203	1530
624.683	1504
625.163	1538
625.643	1540
626.123	1526
626.602	1555
627.082	1529
627.562	1530
628.042	1575
628.522	1549
629.002	1545
629.482	1553
629.963	1548
630.443	1550
630.923	1561
631.403	1569
631.883	1567
632.364	1577
632.844	1555
633.324	1571
633.805	1579
634.285	1559
634.766	1555
635.246	1557
635.727	1562
636.207	1562
636.688	1573
637.168	1576
637.649	1548
638.13	1535
638.611	1552
639.091	1556
639.572	1552
640.053	1537
640.534	1556
641.015	1558
641.496	1540
641.977	1567
642.458	1549
642.939	1552
643.42	1553
643.901	1574
644.382	1591
644.863	1581
645.345	1596
645.826	1602
646.307	1607
646.788	1632
647.27	1614
647.751	1613
648.233	1628
648.714	1592
649.196	1628
649.677	1634
650.159	1632
650.64	1612
651.122	1640
651.603	1611
652.085	1624
652.567	1630
653.049	1619
653.53	1614
654.012	1634
654.494	1609
654.976	1630
655.458	1635
655.94	1636
656.422	1671
656.904	1641
657.386	1618
657.868	1628
658.35	1621
658.833	1630
659.315	1636
659.797	1624
660.279	1632
660.762	1643
661.244	1634
661.726	1621
662.209	1620
662.691	1617
663.174	1595
663.656	1606
664.139	1608
664.621	1591
665.104	1576
665.587	1599
666.069	1600
666.552	1599
667.035	1588
667.517	1592
668	1605
668.483	1608
668.966	1596
669.449	1589
669.932	1590
670.415	1600
670.898	1598
671.381	1603
671.864	1614
672.347	1606
672.83	1603
673.313	1605
673.797	1611
674.28	1636
674.763	1644
675.247	1666
675.73	1657
676.213	1682
676.697	1694
677.18	1690
677.664	1699
678.147	1695
678.631	1702
679.114	1709
679.598	1699
680.082	1709
680.565	1714
681.049	1711
681.533	1706
682.017	1719
682.5	1717
682.984	1729
683.468	1723
683.952	1693
684.436	1734
684.92	1714
685.404	1731
685.888	1744
686.372	1737
686.856	1757
687.341	1780
687.825	1757
688.309	1764
688.793	1759
689.278	1738
689.762	1759
690.246	1746
690.731	1761
691.215	1769
691.7	1718
692.184	1746
692.669	1752
693.153	1770
693.638	1751
694.122	1749
694.607	1745
695.092	1727
695.577	1756
696.061	1719
696.546	1714
697.031	1694
697.516	1709
698.001	1705
698.486	1707
698.971	1735
699.456	1694
699.941	1699
700.426	1700
700.911	1720
701.396	1707
701.881	1728
702.366	1720
702.852	1723
703.337	1736
703.822	1737
704.308	1731
704.793	1749
705.278	1747
705.764	1764
706.249	1747
706.735	1742
707.22	1763
707.706	1734
708.191	1762
708.677	1767
709.163	1759
709.648	1778
710.134	1785
710.62	1768
711.106	1761
711.592	1792
712.077	1783
712.563	1747
713.049	1734
713.535	1776
714.021	1763
714.507	1766
714.993	1746
715.479	1760
715.966	1747
716.452	1752
716.938	1737
717.424	1708
717.91	1743
718.397	1738
718.883	1727
719.369	1719
719.856	1711
720.342	1742
720.829	1731
721.315	1737
721.802	1738
722.288	1746
722.775	1681
723.262	1632
723.748	1701
724.235	1707
724.722	1742
725.208	1725
725.695	1719
726.182	1704
726.669	1666
727.156	1676
727.643	1664
728.13	1655
728.617	1644
729.104	1639
729.591	1622
730.078	1638
730.565	1630
731.052	1612
731.539	1614
732.027	1614
732.514	1601
733.001	1617
733.488	1615
733.976	1591
734.463	1585
734.951	1580
735.438	1611
735.926	1601
736.413	1617
736.901	1606
737.388	1630
737.876	1646
738.364	1641
738.851	1639
739.339	1636
739.827	1645
740.314	1598
740.802	1611
741.29	1627
741.778	1612
742.266	1611
742.754	1624
743.242	1635
743.73	1590
744.218	1584
744.706	1566
745.194	1585
745.682	1574
746.17	1579
746.659	1582
747.147	1544
747.635	1554
748.123	1552
748.612	1532
749.1	1531
749.589	1552
750.077	1541
750.566	1525
751.054	1525
751.543	1530
752.031	1512
752.52	1517
753.008	1483
753.497	1496
753.986	1485
754.474	1474
754.963	1496
755.452	1473
755.941	1472
756.43	1467
756.919	1461
757.408	1455
757.896	1472
758.385	1470
758.875	1463
759.364	1444
759.853	1442
760.342	1417
760.831	1444
761.32	1430
761.809	1395
762.299	1411
762.788	1416
763.277	1409
763.767	1390
764.256	1392
764.745	1372
765.235	1393
765.724	1355
766.214	1373
766.703	1361
767.193	1352
767.683	1357
768.172	1329
768.662	1340
769.152	1335
769.641	1339
770.131	1305
770.621	1323
771.111	1302
771.601	1303
772.09	1295
772.58	1287
773.07	1294
773.56	1302
774.05	1289
774.54	1289
775.031	1285
775.521	1278
776.011	1270
776.501	1288
776.991	1255
777.482	1273
777.972	1240
778.462	1231
778.953	1242
779.443	1234
779.933	1222
780.424	1206
780.914	1214
781.405	1219
781.895	1204
782.386	1215
782.877	1213
783.367	1181
783.858	1168
784.349	1173
784.839	1159
785.33	1171
785.821	1170
786.312	1153
786.803	1162
787.293	1164
787.784	1143
788.275	1127
788.766	1122
789.257	1140
789.748	1126
790.24	1117
790.731	1124
791.222	1114
791.713	1111
792.204	1114
792.696	1088
793.187	1104
793.678	1081
794.169	1068
794.661	1074
795.152	1067
795.644	1066
796.135	1062
796.627	1067
797.118	1053
797.61	1042
798.101	1021
798.593	1030
799.085	1019
799.576	1020
800.068	1010
800.56	1016
801.052	990
801.544	986
802.035	988
802.527	967
803.019	960
803.511	951
804.003	951
804.495	960
804.987	946
805.479	925
805.971	934
806.464	937
806.956	915
807.448	913
807.94	922
808.433	918
808.925	917
809.417	902
809.91	900
810.402	874
810.894	878
811.387	879
811.879	858
812.372	876
812.865	860
813.357	867
813.85	865
814.342	852
814.835	854
815.328	850
815.821	839
816.313	842
816.806	845
817.299	833
817.792	843
818.285	839
818.778	848
819.271	846
819.764	831
820.257	832
820.75	835
821.243	826
821.736	816
822.229	828
822.722	822
823.216	836
