Data from lamp5bck_noballon_Subt4__88__443.txt Node

Date: Wed Apr 09 10:17:04 CEST 2025
User: fys-lab-0081
Spectrometer: S04999
Trigger mode: 0
Resolution mode: 1024 pixels
Integration Time (sec): 1.000000E-1
Scans to average: 1
Nonlinearity correction enabled: false
Boxcar width: 0
Baseline correction enabled: true
XAxis mode: Wavelengths
Number of Pixels in Spectrum: 1024
>>>>>Begin Spectral Data<<<<<
336.42	2
336.877	1
337.334	-1
337.792	-4
338.249	3
338.706	3
339.164	-1
339.621	-3
340.079	1
340.536	5
340.994	9
341.452	-4
341.909	4
342.367	1
342.825	-1
343.283	2
343.741	3
344.198	5
344.656	-3
345.114	-5
345.572	3
346.03	3
346.488	6
346.947	-2
347.405	2
347.863	2
348.321	7
348.779	0
349.238	1
349.696	6
350.154	0
350.613	0
351.071	-3
351.53	2
351.988	4
352.447	-3
352.905	4
353.364	-1
353.823	2
354.282	5
354.74	2
355.199	6
355.658	8
356.117	1
356.576	8
357.035	0
357.494	4
357.953	6
358.412	8
358.871	-7
359.33	7
359.789	5
360.249	-4
360.708	4
361.167	5
361.626	11
362.086	3
362.545	2
363.005	8
363.464	0
363.924	4
364.383	8
364.843	2
365.303	3
365.762	6
366.222	1
366.682	7
367.142	8
367.601	7
368.061	6
368.521	12
368.981	3
369.441	5
369.901	11
370.361	9
370.821	7
371.282	6
371.742	12
372.202	12
372.662	10
373.123	8
373.583	9
374.043	8
374.504	9
374.964	8
375.425	10
375.885	10
376.346	14
376.806	7
377.267	11
377.728	13
378.188	9
378.649	11
379.11	10
379.571	12
380.032	6
380.493	9
380.954	18
381.414	13
381.876	12
382.337	17
382.798	20
383.259	24
383.72	15
384.181	15
384.642	12
385.104	20
385.565	26
386.026	18
386.488	17
386.949	22
387.411	21
387.872	18
388.334	26
388.795	22
389.257	23
389.719	24
390.181	21
390.642	27
391.104	24
391.566	22
392.028	32
392.49	27
392.952	29
393.414	27
393.876	28
394.338	27
394.8	29
395.262	32
395.724	28
396.186	36
396.648	33
397.111	35
397.573	33
398.035	35
398.498	33
398.96	32
399.423	32
399.885	39
400.348	41
400.81	47
401.273	37
401.736	39
402.198	43
402.661	43
403.124	45
403.587	45
404.049	47.5
404.512	50
404.975	51
405.438	51
405.901	49
406.364	56
406.827	53
407.29	54
407.754	54
408.217	55
408.68	50
409.143	53
409.607	60
410.07	56
410.533	58
410.997	60
411.46	57
411.924	60
412.387	60
412.851	62
413.314	62
413.778	62
414.242	65
414.705	64
415.169	68
415.633	66
416.097	67
416.561	73
417.024	72
417.488	72
417.952	72
418.416	79
418.88	73
419.344	74
419.809	69
420.273	72
420.737	74
421.201	70
421.665	80
422.13	79
422.594	82
423.059	86
423.523	80
423.987	84
424.452	89
424.916	93
425.381	91
425.846	94
426.31	97
426.775	95
427.24	100
427.704	90
428.169	104
428.634	101
429.099	100
429.564	99
430.029	103
430.494	101
430.959	104
431.424	104
431.889	102
432.354	110
432.819	110
433.284	108
433.75	109
434.215	117
434.68	121
435.146	121
435.611	128
436.077	127
436.542	135
437.008	138
437.473	138
437.939	143
438.404	143
438.87	147
439.336	144
439.801	142
440.267	146
440.733	158
441.199	150
441.665	146
442.131	151
442.596	158
443.062	155
443.529	168
443.995	168
444.461	170
444.927	182
445.393	182
445.859	189
446.325	189
446.792	208
447.258	212
447.724	212
448.191	216
448.657	220
449.124	231
449.59	228
450.057	242
450.523	239
450.99	243
451.457	245
451.923	251
452.39	246
452.857	256
453.324	249
453.791	261
454.257	254
454.724	263
455.191	264
455.658	257
456.125	277
456.592	270
457.059	274
457.527	281
457.994	288
458.461	295
458.928	301
459.396	299
459.863	306
460.33	307
460.798	307
461.265	310
461.732	310
462.2	317
462.668	317
463.135	325
463.603	310
464.07	318
464.538	314
465.006	330
465.474	322
465.941	321
466.409	329
466.877	321
467.345	331
467.813	328
468.281	333
468.749	332
469.217	336
469.685	337
470.153	346
470.621	346
471.09	353
471.558	365
472.026	367
472.494	378
472.963	388
473.431	400
473.9	407
474.368	417
474.837	425
475.305	430
475.774	438
476.242	458
476.711	450
477.18	464
477.648	464
478.117	466
478.586	461
479.055	460
479.524	473
479.993	466
480.462	466
480.93	472
481.399	472
481.869	475
482.338	474
482.807	483
483.276	481
483.745	481
484.214	499
484.684	504
485.153	505
485.622	509
486.092	527
486.561	518
487.031	534
487.5	545
487.97	559
488.439	578
488.909	589
489.378	605
489.848	611
490.318	626
490.787	646
491.257	657
491.727	661
492.197	673
492.667	669
493.137	675
493.607	690
494.077	698
494.547	683
495.017	691
495.487	693
495.957	714
496.427	697
496.897	708
497.368	710
497.838	706
498.308	725
498.779	731
499.249	740
499.719	741
500.19	756
500.66	756
501.131	761
501.602	775
502.072	774
502.543	786
503.014	816
503.484	817
503.955	842
504.426	880
504.897	886
505.368	898
505.838	922
506.309	944
506.78	972
507.251	990
507.722	1008
508.194	1031
508.665	1045
509.136	1041
509.607	1082
510.078	1095
510.549	1099
511.021	1123
511.492	1131
511.964	1150
512.435	1173
512.906	1153
513.378	1178
513.849	1199
514.321	1205
514.793	1215
515.264	1230
515.736	1248
516.208	1272
516.679	1273
517.151	1283
517.623	1303
518.095	1326
518.567	1342
519.038	1361
519.51	1357
519.982	1382
520.454	1400
520.927	1423
521.399	1441
521.871	1473
522.343	1470
522.815	1490
523.287	1485
523.76	1497
524.232	1528
524.704	1539
525.177	1515
525.649	1519
526.122	1538
526.594	1510
527.067	1549
527.539	1568
528.012	1555
528.484	1556
528.957	1557
529.43	1558
529.903	1549
530.375	1616
530.848	1581
531.321	1604
531.794	1598
532.267	1636
532.74	1616
533.213	1618
533.686	1657
534.159	1636
534.632	1680
535.105	1696
535.578	1729
536.051	1740
536.525	1748
536.998	1757
537.471	1786
537.945	1769
538.418	1805
538.891	1821
539.365	1829
539.838	1849
540.312	1851
540.786	1857
541.259	1851
541.733	1870
542.206	1877
542.68	1854
543.154	1854
543.628	1867
544.101	1927
544.575	1904
545.049	1849
545.523	1882
545.997	1889
546.471	1905
546.945	1879
547.419	1915
547.893	1851
548.367	1890
548.842	1879
549.316	1888
549.79	1904
550.264	1893
550.739	1920
551.213	1911
551.687	1918
552.162	1944
552.636	1921
553.111	1920
553.585	1974
554.06	1957
554.534	1986
555.009	1973
555.484	2021
555.958	2043
556.433	2058
556.908	2078
557.383	2052
557.858	2107
558.333	2123
558.807	2110
559.282	2126
559.757	2186
560.232	2199
560.708	2170
561.183	2160
561.658	2189
562.133	2186
562.608	2172
563.083	2226
563.559	2170
564.034	2190
564.509	2192
564.985	2194
565.46	2174
565.936	2229
566.411	2225
566.887	2206
567.362	2213
567.838	2222
568.313	2247
568.789	2212
569.265	2204
569.74	2234
570.216	2224
570.692	2261
571.168	2260
571.644	2253
572.12	2248
572.596	2279
573.071	2289
573.547	2364
574.024	2388
574.5	2410
574.976	2433
575.452	2462
575.928	2473
576.404	2488
576.881	2585
577.357	2535
577.833	2551
578.31	2618
578.786	2663
579.262	2709
579.739	2662
580.215	2745
580.692	2714
581.169	2713
581.645	2724
582.122	2799
582.598	2800
583.075	2806
583.552	2832
584.029	2825
584.506	2803
584.982	2779
585.459	2833
585.936	2807
586.413	2847
586.89	2885
587.367	2872
587.844	2937
588.321	2915
588.799	2921
589.276	2885
589.753	2930
590.23	2954
590.707	2947
591.185	2940
591.662	2944
592.139	2990
592.617	3043
593.094	3031
593.572	3033
594.049	3077
594.527	3122
595.004	3139
595.482	3213
595.96	3188
596.437	3192
596.915	3291
597.393	3224
597.871	3304
598.349	3257
598.826	3336
599.304	3328
599.782	3402
600.26	3371
600.738	3458
601.216	3466
601.694	3484
602.173	3519
602.651	3509
603.129	3455
603.607	3492
604.085	3518
604.564	3504
605.042	3510
605.52	3502
605.999	3600
606.477	3511
606.956	3532
607.434	3569
607.913	3606
608.391	3594
608.87	3577
609.348	3528
609.827	3566
610.306	3591
610.785	3604
611.263	3618
611.742	3581
612.221	3526
612.7	3570
613.179	3609
613.658	3560
614.137	3630
614.616	3655
615.095	3589
615.574	3653
616.053	3695
616.532	3660
617.011	3672
617.491	3694
617.97	3697
618.449	3762
618.928	3797
619.408	3748
619.887	3799
620.367	3822
620.846	3876
621.326	3856
621.805	3935
622.285	3915
622.764	3949
623.244	3973
623.724	4002
624.203	4019
624.683	3944
625.163	4026
625.643	4027
626.123	3995
626.602	4093
627.082	4016
627.562	4021
628.042	4113
628.522	4066
629.002	4026
629.482	4041
629.963	4048
630.443	4005
630.923	4037
631.403	4057
631.883	4051
632.364	4063
632.844	4037
633.324	4066
633.805	4095
634.285	4041
634.766	4003
635.246	4014
635.727	4014
636.207	4033
636.688	4045
637.168	4043
637.649	4019
638.13	3997
638.611	4034
639.091	4022
639.572	3994
640.053	3973
640.534	4027
641.015	4010
641.496	3964
641.977	4042
642.458	4006
642.939	4023
643.42	4029
643.901	4043
644.382	4094
644.863	4082
645.345	4081
645.826	4077
646.307	4093
646.788	4163
647.27	4087
647.751	4097
648.233	4117
648.714	4037
649.196	4153
649.677	4141
650.159	4154
650.64	4091
651.122	4169
651.603	4117
652.085	4166
652.567	4197
653.049	4137
653.53	4129
654.012	4188
654.494	4127
654.976	4168
655.458	4148
655.94	4139
656.422	4221
656.904	4158
657.386	4128
657.868	4131
658.35	4105
658.833	4139
659.315	4155
659.797	4105
660.279	4108
660.762	4139
661.244	4091
661.726	4032
662.209	4034
662.691	4030
663.174	3970
663.656	4001
664.139	4010
664.621	3968
665.104	3932
665.587	3999
666.069	4024
666.552	4042
667.035	3985
667.517	4000
668	4029
668.483	4040
668.966	4002
669.449	3994
669.932	3984
670.415	4028
670.898	3986
671.381	4017
671.864	4043
672.347	3994
672.83	4002
673.313	4010
673.797	3981
674.28	4061
674.763	4103
675.247	4144
675.73	4109
676.213	4133
676.697	4149
677.18	4156
677.664	4182
678.147	4169
678.631	4200
679.114	4209
679.598	4204
680.082	4245
680.565	4248
681.049	4236
681.533	4234
682.017	4253
682.5	4234
682.984	4263
683.468	4257
683.952	4177
684.436	4275
684.92	4232
685.404	4267
685.888	4295
686.372	4280
686.856	4314
687.341	4350
687.825	4279
688.309	4294
688.793	4282
689.278	4229
689.762	4274
690.246	4255
690.731	4263
691.215	4293
691.7	4177
692.184	4223
692.669	4207
693.153	4252
693.638	4187
694.122	4178
694.607	4214
695.092	4153
695.577	4180
696.061	4115
696.546	4118
697.031	4111
697.516	4141
698.001	4142
698.486	4138
698.971	4208
699.456	4117
699.941	4123
700.426	4103
700.911	4157
701.396	4134
701.881	4184
702.366	4161
702.852	4158
703.337	4178
703.822	4151
704.308	4144
704.793	4182
705.278	4200
705.764	4210
706.249	4177
706.735	4150
707.22	4164
707.706	4094
708.191	4188
708.677	4208
709.163	4182
709.648	4208
710.134	4258
710.62	4215
711.106	4218
711.592	4295
712.077	4269
712.563	4153
713.049	4133
713.535	4221
714.021	4200
714.507	4198
714.993	4160
715.479	4219
715.966	4158
716.452	4156
716.938	4162
717.424	4037
717.91	4123
718.397	4100
718.883	4090
719.369	4106
719.856	4066
720.342	4115
720.829	4061
721.315	4084
721.802	4049
722.288	4076
722.775	3911
723.262	3799
723.748	3977
724.235	3956
724.722	4034
725.208	3990
725.695	3983
726.182	3959
726.669	3882
727.156	3893
727.643	3842
728.13	3829
728.617	3790
729.104	3788
729.591	3774
730.078	3815
730.565	3829
731.052	3773
731.539	3798
732.027	3773
732.514	3711
733.001	3749
733.488	3728
733.976	3717
734.463	3698
734.951	3691
735.438	3745
735.926	3706
736.413	3751
736.901	3724
737.388	3768
737.876	3761
738.364	3730
738.851	3748
739.339	3729
739.827	3765
740.314	3654
740.802	3699
741.29	3705
741.778	3649
742.266	3659
742.754	3666
743.242	3706
743.73	3619
744.218	3611
744.706	3563
745.194	3583
745.682	3568
746.17	3577
746.659	3612
747.147	3530
747.635	3547
748.123	3531
748.612	3496
749.1	3483
749.589	3522
750.077	3502
750.566	3476
751.054	3488
751.543	3508
752.031	3443
752.52	3423
753.008	3355
753.497	3360
753.986	3345
754.474	3333
754.963	3374
755.452	3324
755.941	3314
756.43	3312
756.919	3304
757.408	3289
757.896	3300
758.385	3312
758.875	3270
759.364	3240
759.853	3207
760.342	3138
760.831	3192
761.32	3171
761.809	3114
762.299	3136
762.788	3147
763.277	3139
763.767	3093
764.256	3098
764.745	3042
765.235	3073
765.724	2980
766.214	3031
766.703	3016
767.193	2991
767.683	2999
768.172	2944
768.662	2970
769.152	2953
769.641	2957
770.131	2895
770.621	2932
771.111	2881
771.601	2866
772.09	2834
772.58	2796
773.07	2816
773.56	2852
774.05	2816
774.54	2821
775.031	2808
775.521	2791
776.011	2763
776.501	2775
776.991	2715
777.482	2749
777.972	2679
778.462	2675
778.953	2699
779.443	2682
779.933	2675
780.424	2646
780.914	2672
781.405	2681
781.895	2653
782.386	2649
782.877	2627
783.367	2580
783.858	2556
784.349	2550
784.839	2522
785.33	2530
785.821	2527
786.312	2516
786.803	2527
787.293	2546
787.784	2487
788.275	2441
788.766	2429
789.257	2463
789.748	2413
790.24	2397
790.731	2412
791.222	2377
791.713	2369
792.204	2374
792.696	2306
793.187	2330
793.678	2313
794.169	2249
794.661	2273
795.152	2253
795.644	2233
796.135	2225
796.627	2255
797.118	2206
797.61	2193
798.101	2168
798.593	2196
799.085	2161
799.576	2166
800.068	2129
800.56	2131
801.052	2072
801.544	2067
802.035	2081
802.527	2054
803.019	2033
803.511	2015
804.003	1999
804.495	2011
804.987	1991
805.479	1936
805.971	1964
806.464	1963
806.956	1918
807.448	1914
807.94	1917
808.433	1904
808.925	1891
809.417	1876
809.91	1869
810.402	1804
810.894	1816
811.387	1826
811.879	1803
812.372	1817
812.865	1797
813.357	1795
813.85	1780
814.342	1776
814.835	1775
815.328	1767
815.821	1738
816.313	1730
816.806	1738
817.299	1716
817.792	1721
818.285	1701
818.778	1715
819.271	1726
819.764	1695
820.257	1708
820.75	1710
821.243	1713
821.736	1695
822.229	1708
822.722	1702
823.216	1731
