Data from lamp5bck_noballon_Subt4__55__410.txt Node

Date: Wed Apr 09 10:17:00 CEST 2025
User: fys-lab-0081
Spectrometer: S04999
Trigger mode: 0
Resolution mode: 1024 pixels
Integration Time (sec): 1.000000E-1
Scans to average: 1
Nonlinearity correction enabled: false
Boxcar width: 0
Baseline correction enabled: true
XAxis mode: Wavelengths
Number of Pixels in Spectrum: 1024
>>>>>Begin Spectral Data<<<<<
336.42	1
336.877	-3
337.334	0
337.792	1
338.249	5
338.706	-2
339.164	1
339.621	0
340.079	1
340.536	-3
340.994	9
341.452	-2
341.909	2
342.367	0
342.825	-1
343.283	-1
343.741	-1
344.198	1
344.656	0
345.114	0
345.572	5
346.03	8
346.488	6
346.947	-4
347.405	3
347.863	0
348.321	5
348.779	2
349.238	-1
349.696	3
350.154	6
350.613	1
351.071	7
351.53	2
351.988	5
352.447	0
352.905	2
353.364	1
353.823	3
354.282	2
354.74	0
355.199	0
355.658	3
356.117	4
356.576	9
357.035	3
357.494	0
357.953	8
358.412	8
358.871	-2
359.33	2
359.789	7
360.249	4
360.708	7
361.167	3
361.626	3
362.086	3
362.545	5
363.005	12
363.464	3
363.924	3
364.383	7
364.843	-1
365.303	7
365.762	9
366.222	3
366.682	7
367.142	9
367.601	7
368.061	2
368.521	11
368.981	4
369.441	9
369.901	13
370.361	5
370.821	5
371.282	12
371.742	13
372.202	6
372.662	11
373.123	8
373.583	5
374.043	9
374.504	4
374.964	11
375.425	9
375.885	10
376.346	12
376.806	9
377.267	15
377.728	19
378.188	12
378.649	14
379.11	12
379.571	10
380.032	12
380.493	8
380.954	13
381.414	8
381.876	14
382.337	16
382.798	20
383.259	18
383.72	15
384.181	15
384.642	16
385.104	22
385.565	29
386.026	21
386.488	17
386.949	20
387.411	20
387.872	19
388.334	24
388.795	20
389.257	26
389.719	27
390.181	22
390.642	28
391.104	27
391.566	24
392.028	33
392.49	26
392.952	31
393.414	32
393.876	28
394.338	29
394.8	32
395.262	33
395.724	32
396.186	38
396.648	37
397.111	33
397.573	40
398.035	35
398.498	34
398.96	34
399.423	39
399.885	44
400.348	38
400.81	48
401.273	36
401.736	42
402.198	40
402.661	43
403.124	45
403.587	48
404.049	47.5
404.512	47
404.975	47
405.438	49
405.901	50
406.364	51
406.827	52
407.29	56
407.754	54
408.217	57
408.68	51
409.143	52
409.607	54
410.07	57
410.533	57
410.997	57
411.46	58
411.924	61
412.387	59
412.851	63
413.314	65
413.778	64
414.242	70
414.705	68
415.169	68
415.633	67
416.097	71
416.561	69
417.024	75
417.488	74
417.952	74
418.416	76
418.88	74
419.344	74
419.809	74
420.273	77
420.737	75
421.201	72
421.665	78
422.13	79
422.594	81
423.059	83
423.523	88
423.987	84
424.452	89
424.916	94
425.381	97
425.846	91
426.31	94
426.775	97
427.24	102
427.704	98
428.169	101
428.634	101
429.099	101
429.564	101
430.029	103
430.494	103
430.959	105
431.424	102
431.889	102
432.354	108
432.819	108
433.284	110
433.75	111
434.215	115
434.68	120
435.146	122
435.611	123
436.077	128
436.542	130
437.008	138
437.473	139
437.939	145
438.404	141
438.87	145
439.336	143
439.801	142
440.267	147
440.733	147
441.199	153
441.665	152
442.131	159
442.596	157
443.062	155
443.529	166
443.995	166
444.461	172
444.927	183
445.393	181
445.859	191
446.325	196
446.792	209
447.258	205
447.724	211
448.191	219
448.657	225
449.124	230
449.59	223
450.057	243
450.523	242
450.99	245
451.457	242
451.923	249
452.39	244
452.857	256
453.324	252
453.791	253
454.257	257
454.724	267
455.191	266
455.658	263
456.125	269
456.592	271
457.059	275
457.527	281
457.994	288
458.461	290
458.928	301
459.396	295
459.863	307
460.33	305
460.798	308
461.265	314
461.732	311
462.2	320
462.668	319
463.135	326
463.603	310
464.07	321
464.538	317
465.006	336
465.474	322
465.941	324
466.409	323
466.877	320
467.345	332
467.813	331
468.281	332
468.749	335
469.217	336
469.685	342
470.153	347
470.621	347
471.09	348
471.558	366
472.026	367
472.494	376
472.963	388
473.431	400
473.9	407
474.368	417
474.837	421
475.305	427
475.774	440
476.242	452
476.711	453
477.18	465
477.648	459
478.117	468
478.586	465
479.055	467
479.524	474
479.993	469
480.462	465
480.93	468
481.399	471
481.869	474
482.338	478
482.807	485
483.276	487
483.745	488
484.214	501
484.684	504
485.153	504
485.622	506
486.092	525
486.561	522
487.031	537
487.5	548
487.97	561
488.439	571
488.909	592
489.378	611
489.848	611
490.318	622
490.787	645
491.257	664
491.727	666
492.197	671
492.667	667
493.137	677
493.607	686
494.077	696
494.547	685
495.017	691
495.487	698
495.957	716
496.427	701
496.897	702
497.368	711
497.838	711
498.308	723
498.779	725
499.249	738
499.719	748
500.19	757
500.66	759
501.131	758
501.602	776
502.072	773
502.543	786
503.014	821
503.484	820
503.955	845
504.426	880
504.897	891
505.368	899
505.838	916
506.309	943
506.78	973
507.251	994
507.722	1012
508.194	1034
508.665	1051
509.136	1051
509.607	1083
510.078	1095
510.549	1096
511.021	1125
511.492	1130
511.964	1152
512.435	1167
512.906	1157
513.378	1178
513.849	1199
514.321	1203
514.793	1216
515.264	1238
515.736	1242
516.208	1270
516.679	1273
517.151	1290
517.623	1301
518.095	1327
518.567	1343
519.038	1361
519.51	1355
519.982	1386
520.454	1403
520.927	1427
521.399	1449
521.871	1471
522.343	1474
522.815	1483
523.287	1484
523.76	1496
524.232	1525
524.704	1540
525.177	1512
525.649	1522
526.122	1541
526.594	1512
527.067	1547
527.539	1569
528.012	1560
528.484	1556
528.957	1563
529.43	1562
529.903	1550
530.375	1612
530.848	1587
531.321	1605
531.794	1603
532.267	1641
532.74	1627
533.213	1625
533.686	1657
534.159	1637
534.632	1687
535.105	1703
535.578	1734
536.051	1737
536.525	1752
536.998	1752
537.471	1785
537.945	1764
538.418	1807
538.891	1821
539.365	1831
539.838	1851
540.312	1853
540.786	1869
541.259	1856
541.733	1870
542.206	1879
542.68	1853
543.154	1861
543.628	1870
544.101	1928
544.575	1903
545.049	1855
545.523	1884
545.997	1890
546.471	1913
546.945	1884
547.419	1914
547.893	1852
548.367	1904
548.842	1888
549.316	1885
549.79	1914
550.264	1890
550.739	1921
551.213	1919
551.687	1925
552.162	1944
552.636	1927
553.111	1923
553.585	1982
554.06	1961
554.534	1991
555.009	1975
555.484	2020
555.958	2041
556.433	2055
556.908	2084
557.383	2061
557.858	2126
558.333	2122
558.807	2116
559.282	2124
559.757	2197
560.232	2210
560.708	2179
561.183	2157
561.658	2196
562.133	2195
562.608	2180
563.083	2230
563.559	2170
564.034	2194
564.509	2192
564.985	2198
565.46	2169
565.936	2235
566.411	2227
566.887	2208
567.362	2220
567.838	2235
568.313	2250
568.789	2219
569.265	2203
569.74	2236
570.216	2233
570.692	2258
571.168	2264
571.644	2248
572.12	2248
572.596	2281
573.071	2292
573.547	2360
574.024	2387
574.5	2420
574.976	2439
575.452	2472
575.928	2475
576.404	2493
576.881	2579
577.357	2546
577.833	2559
578.31	2620
578.786	2660
579.262	2715
579.739	2673
580.215	2738
580.692	2723
581.169	2726
581.645	2724
582.122	2809
582.598	2807
583.075	2805
583.552	2836
584.029	2831
584.506	2811
584.982	2784
585.459	2841
585.936	2815
586.413	2845
586.89	2893
587.367	2870
587.844	2939
588.321	2922
588.799	2924
589.276	2889
589.753	2929
590.23	2957
590.707	2950
591.185	2939
591.662	2946
592.139	2999
592.617	3047
593.094	3039
593.572	3041
594.049	3087
594.527	3122
595.004	3146
595.482	3220
595.96	3186
596.437	3203
596.915	3294
597.393	3233
597.871	3305
598.349	3271
598.826	3339
599.304	3340
599.782	3407
600.26	3384
600.738	3468
601.216	3460
601.694	3494
602.173	3526
602.651	3521
603.129	3456
603.607	3495
604.085	3522
604.564	3513
605.042	3520
605.52	3508
605.999	3600
606.477	3519
606.956	3533
607.434	3574.5
607.913	3616
608.391	3607
608.87	3575
609.348	3542
609.827	3559
610.306	3592
610.785	3606
611.263	3625
611.742	3590
612.221	3531
612.7	3583
613.179	3614
613.658	3569
614.137	3640
614.616	3645
615.095	3589
615.574	3663
616.053	3697
616.532	3665
617.011	3679
617.491	3705
617.97	3702
618.449	3774
618.928	3795
619.408	3767
619.887	3813
620.367	3834
620.846	3881
621.326	3855
621.805	3944
622.285	3934
622.764	3962
623.244	3970
623.724	4002
624.203	4032
624.683	3952
625.163	4032
625.643	4037
626.123	3996
626.602	4107
627.082	4029
627.562	4027
628.042	4119
628.522	4065
629.002	4027
629.482	4049
629.963	4046
630.443	4019
630.923	4035
631.403	4064
631.883	4070
632.364	4071
632.844	4029
633.324	4072
633.805	4091
634.285	4047
634.766	4020
635.246	4019
635.727	4023
636.207	4034
636.688	4047
637.168	4052
637.649	4019
638.13	4001
638.611	4038
639.091	4039
639.572	3997
640.053	3991
640.534	4028
641.015	4013
641.496	3963
641.977	4045
642.458	4010
642.939	4026
643.42	4047
643.901	4046
644.382	4093
644.863	4087
645.345	4087
645.826	4092
646.307	4110
646.788	4174
647.27	4096
647.751	4096
648.233	4135
648.714	4043
649.196	4164
649.677	4153
650.159	4151
650.64	4100
651.122	4160
651.603	4121
652.085	4186
652.567	4195
653.049	4141
653.53	4149
654.012	4191
654.494	4129
654.976	4173
655.458	4152
655.94	4151
656.422	4230
656.904	4163
657.386	4125
657.868	4133
658.35	4108
658.833	4145
659.315	4166
659.797	4118
660.279	4110
660.762	4147
661.244	4103
661.726	4041
662.209	4030
662.691	4046
663.174	3972
663.656	4011
664.139	4006
664.621	3965
665.104	3936
665.587	4000
666.069	4032
666.552	4044
667.035	3997
667.517	4006
668	4037
668.483	4032
668.966	4010
669.449	3988
669.932	3996
670.415	4029
670.898	4002
671.381	4023
671.864	4041
672.347	4012
672.83	4016
673.313	4005
673.797	3984
674.28	4073
674.763	4108
675.247	4138
675.73	4117
676.213	4130
676.697	4152
677.18	4163
677.664	4184
678.147	4184
678.631	4210
679.114	4210
679.598	4217
680.082	4257
680.565	4260
681.049	4244
681.533	4236
682.017	4262
682.5	4243
682.984	4258
683.468	4265
683.952	4192
684.436	4276
684.92	4244
685.404	4269
685.888	4307
686.372	4291
686.856	4318
687.341	4363
687.825	4299
688.309	4305
688.793	4281
689.278	4236
689.762	4278
690.246	4256
690.731	4280
691.215	4293
691.7	4178
692.184	4225
692.669	4216
693.153	4254
693.638	4188
694.122	4183
694.607	4211
695.092	4155
695.577	4190
696.061	4120
696.546	4134
697.031	4112
697.516	4140
698.001	4147
698.486	4136
698.971	4207
699.456	4126
699.941	4108
700.426	4111
700.911	4160
701.396	4142
701.881	4186
702.366	4174
702.852	4158
703.337	4181
703.822	4158
704.308	4153
704.793	4187
705.278	4200
705.764	4219
706.249	4178
706.735	4155
707.22	4174
707.706	4102
708.191	4196
708.677	4213
709.163	4183
709.648	4212
710.134	4261
710.62	4217
711.106	4223
711.592	4293
712.077	4276
712.563	4161
713.049	4138
713.535	4219
714.021	4192
714.507	4198
714.993	4170
715.479	4226
715.966	4171
716.452	4168
716.938	4171
717.424	4051
717.91	4134
718.397	4100
718.883	4093
719.369	4121
719.856	4074
720.342	4121
720.829	4061
721.315	4092
721.802	4063
722.288	4088
722.775	3918
723.262	3804
723.748	3977
724.235	3978
724.722	4046
725.208	3986
725.695	3990
726.182	3963
726.669	3896
727.156	3891
727.643	3848
728.13	3842
728.617	3807
729.104	3806
729.591	3781
730.078	3814
730.565	3834
731.052	3783
731.539	3798
732.027	3767
732.514	3707
733.001	3756
733.488	3740
733.976	3718
734.463	3713
734.951	3700
735.438	3748
735.926	3716
736.413	3766
736.901	3724
737.388	3772
737.876	3770
738.364	3738
738.851	3752
739.339	3738
739.827	3775
740.314	3672
740.802	3689
741.29	3712
741.778	3666
742.266	3661
742.754	3679
743.242	3707
743.73	3631
744.218	3615
744.706	3571
745.194	3595
745.682	3571
746.17	3587
746.659	3613
747.147	3538
747.635	3551
748.123	3538
748.612	3501
749.1	3490
749.589	3534
750.077	3505
750.566	3487
751.054	3492
751.543	3500
752.031	3447
752.52	3435
753.008	3365
753.497	3369
753.986	3356
754.474	3328
754.963	3378
755.452	3335
755.941	3318
756.43	3320
756.919	3303
757.408	3293
757.896	3308
758.385	3309
758.875	3276
759.364	3243
759.853	3207
760.342	3148
760.831	3196
761.32	3172
761.809	3121
762.299	3137
762.788	3151
763.277	3147
763.767	3096
764.256	3101
764.745	3042
765.235	3079
765.724	2987
766.214	3048
766.703	3015
767.193	2984
767.683	2999
768.172	2950
768.662	2969
769.152	2945
769.641	2964
770.131	2898
770.621	2935
771.111	2888
771.601	2876
772.09	2838
772.58	2800
773.07	2817
773.56	2855
774.05	2818
774.54	2819
775.031	2814
775.521	2783
776.011	2765
776.501	2785
776.991	2723
777.482	2751
777.972	2684
778.462	2677
778.953	2700
779.443	2688
779.933	2683
780.424	2652
780.914	2672
781.405	2687
781.895	2660
782.386	2655
782.877	2644
783.367	2580
783.858	2558
784.349	2558
784.839	2533
785.33	2532
785.821	2535
786.312	2521
786.803	2530
787.293	2541
787.784	2498
788.275	2451
788.766	2427
789.257	2464
789.748	2413
790.24	2393
790.731	2419
791.222	2382
791.713	2366
792.204	2367
792.696	2308
793.187	2329
793.678	2313
794.169	2250
794.661	2274
795.152	2253
795.644	2230
796.135	2229
796.627	2247
797.118	2209
797.61	2201
798.101	2173
798.593	2199
799.085	2170
799.576	2167
800.068	2136
800.56	2127
801.052	2081
801.544	2071
802.035	2085
802.527	2059
803.019	2032
803.511	2022
804.003	2006
804.495	2007
804.987	1985
805.479	1942
805.971	1967
806.464	1966
806.956	1919
807.448	1920
807.94	1916
808.433	1902
808.925	1902
809.417	1884
809.91	1861
810.402	1811
810.894	1820
811.387	1837
811.879	1810
812.372	1825
812.865	1794
813.357	1795
813.85	1786
814.342	1777
814.835	1782
815.328	1769
815.821	1744
816.313	1739
816.806	1740
817.299	1720
817.792	1721
818.285	1699
818.778	1719
819.271	1720
819.764	1702
820.257	1708
820.75	1717
821.243	1720
821.736	1695
822.229	1711
822.722	1708
823.216	1740
