Data from lamp5bck_noballon_Subt4__29__384.txt Node

Date: Wed Apr 09 10:16:57 CEST 2025
User: fys-lab-0081
Spectrometer: S04999
Trigger mode: 0
Resolution mode: 1024 pixels
Integration Time (sec): 1.000000E-1
Scans to average: 1
Nonlinearity correction enabled: false
Boxcar width: 0
Baseline correction enabled: true
XAxis mode: Wavelengths
Number of Pixels in Spectrum: 1024
>>>>>Begin Spectral Data<<<<<
336.42	-1
336.877	-5
337.334	2
337.792	-2
338.249	4
338.706	3
339.164	0
339.621	-1
340.079	0
340.536	4
340.994	8
341.452	-1
341.909	1
342.367	-2
342.825	0
343.283	-1
343.741	1
344.198	0
344.656	-3
345.114	1
345.572	2
346.03	7
346.488	6
346.947	-1
347.405	3
347.863	0
348.321	8
348.779	-1
349.238	1
349.696	5
350.154	0
350.613	1
351.071	2
351.53	4
351.988	4
352.447	2
352.905	4
353.364	-1
353.823	1
354.282	4
354.74	5
355.199	4
355.658	7
356.117	1
356.576	4
357.035	3
357.494	5
357.953	6
358.412	8
358.871	-7
359.33	7
359.789	4
360.249	0
360.708	6
361.167	2
361.626	7
362.086	4
362.545	5
363.005	11
363.464	1
363.924	4
364.383	8
364.843	2
365.303	5
365.762	6
366.222	4
366.682	8
367.142	9
367.601	8
368.061	5
368.521	9
368.981	5
369.441	11
369.901	13
370.361	5
370.821	5
371.282	7
371.742	6
372.202	11
372.662	9
373.123	9
373.583	8
374.043	12
374.504	6
374.964	12
375.425	7
375.885	10
376.346	12
376.806	9
377.267	11
377.728	12
378.188	12
378.649	9
379.11	13
379.571	8
380.032	9
380.493	8
380.954	15
381.414	9
381.876	13
382.337	17
382.798	17
383.259	21
383.72	13
384.181	14
384.642	16
385.104	23
385.565	30
386.026	21
386.488	20
386.949	22
387.411	22
387.872	22
388.334	22
388.795	24
389.257	28
389.719	27
390.181	22
390.642	27
391.104	23
391.566	22
392.028	31
392.49	27
392.952	31
393.414	33
393.876	29
394.338	26
394.8	25
395.262	34
395.724	32
396.186	37
396.648	34
397.111	34
397.573	36
398.035	36
398.498	38
398.96	33
399.423	39
399.885	42
400.348	41
400.81	47
401.273	37
401.736	40
402.198	44
402.661	44
403.124	45
403.587	47
404.049	48
404.512	49
404.975	47
405.438	46
405.901	49
406.364	55
406.827	53
407.29	53
407.754	52
408.217	53
408.68	48
409.143	54
409.607	61
410.07	57
410.533	54
410.997	60
411.46	58
411.924	60
412.387	57
412.851	65
413.314	68
413.778	64
414.242	67
414.705	66
415.169	66
415.633	69
416.097	70
416.561	73
417.024	73
417.488	79
417.952	74
418.416	76
418.88	72
419.344	70
419.809	74
420.273	75
420.737	74
421.201	68
421.665	78
422.13	80
422.594	83
423.059	88
423.523	83
423.987	86
424.452	85
424.916	93
425.381	92
425.846	94
426.31	94
426.775	96
427.24	102
427.704	91
428.169	99
428.634	102
429.099	99
429.564	99
430.029	103
430.494	106
430.959	108
431.424	101
431.889	102
432.354	107
432.819	109
433.284	108
433.75	111
434.215	113
434.68	119
435.146	124
435.611	123
436.077	126
436.542	129
437.008	135
437.473	137
437.939	143
438.404	145
438.87	147
439.336	147
439.801	142
440.267	146
440.733	155
441.199	154
441.665	146
442.131	159
442.596	155
443.062	157
443.529	164
443.995	173
444.461	168
444.927	186
445.393	180
445.859	188
446.325	190
446.792	210
447.258	202
447.724	214
448.191	220
448.657	218
449.124	228
449.59	224
450.057	244
450.523	238
450.99	244
451.457	246
451.923	251
452.39	245
452.857	257
453.324	249
453.791	261
454.257	263
454.724	261
455.191	259
455.658	261
456.125	271
456.592	273
457.059	278
457.527	279
457.994	291
458.461	294
458.928	298
459.396	292
459.863	305
460.33	302
460.798	309
461.265	314
461.732	312
462.2	319
462.668	317
463.135	329
463.603	310
464.07	324
464.538	314
465.006	330
465.474	325
465.941	321
466.409	327
466.877	317
467.345	334
467.813	329
468.281	331
468.749	332
469.217	335
469.685	337
470.153	348
470.621	347
471.09	349
471.558	367
472.026	368
472.494	373
472.963	388
473.431	398
473.9	402
474.368	414
474.837	421
475.305	427
475.774	437
476.242	454
476.711	451
477.18	464
477.648	459
478.117	463
478.586	467
479.055	457
479.524	471
479.993	468
480.462	467
480.93	470
481.399	468
481.869	474
482.338	477
482.807	485
483.276	482
483.745	486
484.214	496
484.684	508
485.153	507
485.622	505
486.092	526
486.561	519
487.031	533
487.5	549
487.97	554
488.439	572
488.909	587
489.378	611
489.848	608
490.318	626
490.787	646
491.257	661
491.727	659
492.197	673
492.667	669
493.137	678
493.607	683
494.077	694
494.547	685
495.017	688
495.487	702
495.957	716
496.427	696
496.897	697
497.368	709
497.838	707
498.308	721
498.779	729
499.249	736
499.719	749
500.19	751
500.66	755
501.131	760
501.602	779
502.072	770
502.543	787
503.014	819
503.484	816
503.955	838
504.426	876
504.897	888
505.368	893
505.838	918
506.309	943
506.78	972
507.251	986
507.722	1010
508.194	1033
508.665	1043
509.136	1043
509.607	1082
510.078	1091
510.549	1099
511.021	1118
511.492	1127
511.964	1149
512.435	1171
512.906	1159
513.378	1173
513.849	1195
514.321	1205
514.793	1216
515.264	1231
515.736	1237
516.208	1264
516.679	1274
517.151	1283
517.623	1301
518.095	1323
518.567	1339
519.038	1361
519.51	1356
519.982	1383
520.454	1400
520.927	1429
521.399	1446
521.871	1462
522.343	1475
522.815	1478
523.287	1479
523.76	1493
524.232	1525
524.704	1532
525.177	1509
525.649	1520
526.122	1535
526.594	1511
527.067	1553
527.539	1561
528.012	1559
528.484	1553
528.957	1559
529.43	1561
529.903	1549
530.375	1608
530.848	1585
531.321	1602
531.794	1597
532.267	1636
532.74	1614
533.213	1618
533.686	1651
534.159	1640
534.632	1675
535.105	1696
535.578	1731
536.051	1734
536.525	1741
536.998	1749
537.471	1783
537.945	1765
538.418	1807
538.891	1818
539.365	1831
539.838	1846
540.312	1848
540.786	1863
541.259	1850
541.733	1870
542.206	1876
542.68	1857
543.154	1855
543.628	1872
544.101	1916
544.575	1901
545.049	1848
545.523	1875
545.997	1888
546.471	1901
546.945	1879
547.419	1911
547.893	1851
548.367	1894
548.842	1881
549.316	1887
549.79	1900
550.264	1876
550.739	1915
551.213	1906
551.687	1906
552.162	1941
552.636	1920
553.111	1922
553.585	1979
554.06	1950
554.534	1984
555.009	1975
555.484	2005
555.958	2046
556.433	2056
556.908	2074
557.383	2058
557.858	2110
558.333	2122
558.807	2105
559.282	2119
559.757	2186
560.232	2202
560.708	2171
561.183	2153
561.658	2186
562.133	2191
562.608	2167
563.083	2222
563.559	2165
564.034	2186
564.509	2193
564.985	2193
565.46	2173
565.936	2220
566.411	2224
566.887	2197
567.362	2207
567.838	2224
568.313	2240
568.789	2206
569.265	2205
569.74	2232
570.216	2213
570.692	2258
571.168	2255
571.644	2248
572.12	2249
572.596	2272
573.071	2287
573.547	2347
574.024	2381
574.5	2414
574.976	2433
575.452	2461
575.928	2468
576.404	2483
576.881	2572
577.357	2532
577.833	2540
578.31	2617
578.786	2659
579.262	2699
579.739	2652
580.215	2732
580.692	2714
581.169	2710
581.645	2715
582.122	2801
582.598	2788
583.075	2794
583.552	2827
584.029	2819
584.506	2804
584.982	2778
585.459	2826
585.936	2812
586.413	2841
586.89	2883
587.367	2870
587.844	2930
588.321	2917
588.799	2915
589.276	2872
589.753	2923
590.23	2947
590.707	2937
591.185	2938
591.662	2938
592.139	2993
592.617	3049
593.094	3027
593.572	3039
594.049	3081
594.527	3107
595.004	3140
595.482	3208
595.96	3180
596.437	3187
596.915	3285
597.393	3216
597.871	3298
598.349	3259
598.826	3336
599.304	3326
599.782	3397
600.26	3366
600.738	3459
601.216	3459
601.694	3490
602.173	3513
602.651	3509
603.129	3443
603.607	3486
604.085	3512
604.564	3509
605.042	3512
605.52	3496
605.999	3590
606.477	3518
606.956	3528
607.434	3572
607.913	3616
608.391	3599
608.87	3568
609.348	3538
609.827	3551
610.306	3589
610.785	3598
611.263	3606
611.742	3570
612.221	3529
612.7	3569
613.179	3600
613.658	3563
614.137	3620
614.616	3646
615.095	3581
615.574	3643
616.053	3687
616.532	3655
617.011	3664
617.491	3688
617.97	3695
618.449	3761
618.928	3787
619.408	3748
619.887	3797
620.367	3817
620.846	3865
621.326	3847
621.805	3930
622.285	3914
622.764	3948
623.244	3962
623.724	3998
624.203	4009
624.683	3939
625.163	4028
625.643	4023
626.123	3984
626.602	4097
627.082	4014
627.562	4013
628.042	4105
628.522	4059
629.002	4020
629.482	4035
629.963	4040
630.443	4011
630.923	4026
631.403	4051
631.883	4048
632.364	4058
632.844	4024
633.324	4062
633.805	4084
634.285	4040
634.766	4003
635.246	4016
635.727	4012
636.207	4024
636.688	4042
637.168	4049
637.649	4014
638.13	3993
638.611	4026
639.091	4014
639.572	3992
640.053	3970
640.534	4015
641.015	4005
641.496	3958
641.977	4034
642.458	3995
642.939	4012
643.42	4031
643.901	4032
644.382	4086
644.863	4072
645.345	4076
645.826	4075
646.307	4090
646.788	4160
647.27	4084
647.751	4078
648.233	4111
648.714	4027
649.196	4148
649.677	4145
650.159	4142
650.64	4088
651.122	4147
651.603	4120
652.085	4158
652.567	4175
653.049	4139
653.53	4129
654.012	4195
654.494	4120
654.976	4167
655.458	4145
655.94	4138
656.422	4212
656.904	4158
657.386	4113
657.868	4123
658.35	4105
658.833	4132
659.315	4148
659.797	4103
660.279	4094
660.762	4133
661.244	4086
661.726	4033
662.209	4017
662.691	4036
663.174	3972
663.656	3999
664.139	3999
664.621	3953
665.104	3932
665.587	3980
666.069	4017
666.552	4031
667.035	3988
667.517	3993
668	4037
668.483	4022
668.966	4001
669.449	3980
669.932	3987
670.415	4018
670.898	3989
671.381	4015
671.864	4035
672.347	4003
672.83	3999
673.313	3998
673.797	3978
674.28	4055
674.763	4101
675.247	4132
675.73	4107
676.213	4126
676.697	4156
677.18	4155
677.664	4168
678.147	4165
678.631	4185
679.114	4204
679.598	4194
680.082	4241
680.565	4257
681.049	4222
681.533	4224
682.017	4238
682.5	4236
682.984	4248
683.468	4259
683.952	4181
684.436	4267
684.92	4220
685.404	4264
685.888	4295
686.372	4277
686.856	4301
687.341	4342
687.825	4281
688.309	4286
688.793	4276
689.278	4220
689.762	4274
690.246	4252
690.731	4267
691.215	4286
691.7	4174
692.184	4220
692.669	4193
693.153	4239
693.638	4186
694.122	4179
694.607	4202
695.092	4139
695.577	4186
696.061	4106
696.546	4118
697.031	4104
697.516	4128
698.001	4130
698.486	4130
698.971	4198
699.456	4105
699.941	4110
700.426	4107
700.911	4150
701.396	4134
701.881	4178
702.366	4159
702.852	4152
703.337	4179
703.822	4148
704.308	4142
704.793	4173
705.278	4184
705.764	4210
706.249	4183
706.735	4146
707.22	4169
707.706	4091
708.191	4179
708.677	4203
709.163	4174
709.648	4204
710.134	4251
710.62	4205
711.106	4220
711.592	4283
712.077	4261
712.563	4149
713.049	4124
713.535	4215
714.021	4191
714.507	4190
714.993	4146
715.479	4209
715.966	4160
716.452	4156
716.938	4154
717.424	4030
717.91	4114
718.397	4097
718.883	4080
719.369	4098
719.856	4068
720.342	4108
720.829	4053
721.315	4079
721.802	4048
722.288	4077
722.775	3910
723.262	3799
723.748	3968
724.235	3969
724.722	4032
725.208	3977
725.695	3975
726.182	3962
726.669	3883
727.156	3880
727.643	3833
728.13	3828
728.617	3795
729.104	3790
729.591	3779
730.078	3803
730.565	3828
731.052	3779
731.539	3787
732.027	3760
732.514	3706
733.001	3744
733.488	3726
733.976	3719
734.463	3708
734.951	3691
735.438	3738
735.926	3711
736.413	3746
736.901	3719
737.388	3770
737.876	3760
738.364	3731
738.851	3741
739.339	3730
739.827	3767
740.314	3656
740.802	3674
741.29	3690
741.778	3643
742.266	3654
742.754	3672
743.242	3705
743.73	3613
744.218	3603
744.706	3559
745.194	3591
745.682	3564
746.17	3571
746.659	3605
747.147	3526
747.635	3538
748.123	3528
748.612	3488
749.1	3484
749.589	3524
750.077	3498
750.566	3472
751.054	3485
751.543	3498
752.031	3437
752.52	3420
753.008	3357
753.497	3361
753.986	3350
754.474	3327
754.963	3368
755.452	3329
755.941	3312
756.43	3306
756.919	3303
757.408	3283
757.896	3303
758.385	3311
758.875	3269
759.364	3224
759.853	3199
760.342	3137
760.831	3196
761.32	3159
761.809	3110
762.299	3126
762.788	3142
763.277	3130
763.767	3094
764.256	3087
764.745	3034
765.235	3066
765.724	2978
766.214	3038
766.703	3009
767.193	2982
767.683	2990
768.172	2937
768.662	2969
769.152	2938
769.641	2946
770.131	2880
770.621	2926
771.111	2878
771.601	2859
772.09	2830
772.58	2789
773.07	2810
773.56	2845
774.05	2805
774.54	2815
775.031	2804
775.521	2778
776.011	2758
776.501	2776
776.991	2712
777.482	2740
777.972	2680
778.462	2668
778.953	2695
779.443	2677
779.933	2673
780.424	2643
780.914	2672
781.405	2678
781.895	2655
782.386	2648
782.877	2631
783.367	2583
783.858	2558
784.349	2552
784.839	2519
785.33	2529
785.821	2530
786.312	2518
786.803	2528
787.293	2538
787.784	2493
788.275	2449
788.766	2424
789.257	2455
789.748	2404
790.24	2391
790.731	2412
791.222	2369
791.713	2358
792.204	2366
792.696	2299
793.187	2327
793.678	2302
794.169	2239
794.661	2269
795.152	2251
795.644	2231
796.135	2226
796.627	2252
797.118	2210
797.61	2199
798.101	2172
798.593	2194
799.085	2161
799.576	2169
800.068	2128
800.56	2130
801.052	2076
801.544	2069
802.035	2085
802.527	2056
803.019	2035
803.511	2010
804.003	1997
804.495	2007
804.987	1980
805.479	1933
805.971	1962
806.464	1963
806.956	1916
807.448	1920
807.94	1919
808.433	1898
808.925	1902
809.417	1880
809.91	1861
810.402	1802
810.894	1818
811.387	1829
811.879	1804
812.372	1819
812.865	1794
813.357	1791
813.85	1782
814.342	1772
814.835	1774
815.328	1765
815.821	1737
816.313	1729
816.806	1735
817.299	1711
817.792	1718
818.285	1701
818.778	1710
819.271	1719
819.764	1700
820.257	1700
820.75	1713
821.243	1713
821.736	1695
822.229	1705
822.722	1700
823.216	1739
