Data from lamp4helium_sterk_Subt2__62__162.txt Node

Date: Wed Apr 09 11:07:02 CEST 2025
User: fys-lab-0081
Spectrometer: S04999
Trigger mode: 0
Resolution mode: 1024 pixels
Integration Time (sec): 1.000000E-1
Scans to average: 1
Nonlinearity correction enabled: false
Boxcar width: 0
Baseline correction enabled: true
XAxis mode: Wavelengths
Number of Pixels in Spectrum: 1024
>>>>>Begin Spectral Data<<<<<
336.42	-4
336.877	2
337.334	2
337.792	4
338.249	3
338.706	7
339.164	3
339.621	0
340.079	5
340.536	6
340.994	8
341.452	6
341.909	6
342.367	6
342.825	2
343.283	7
343.741	3
344.198	7
344.656	-1
345.114	2
345.572	7
346.03	5
346.488	7
346.947	5
347.405	7
347.863	4
348.321	6
348.779	10
349.238	8
349.696	9
350.154	9
350.613	4
351.071	8
351.53	15
351.988	11
352.447	8
352.905	6
353.364	6
353.823	14
354.282	10
354.74	3
355.199	8
355.658	13
356.117	8
356.576	11
357.035	15
357.494	9
357.953	11
358.412	18
358.871	9
359.33	9
359.789	10
360.249	12
360.708	13
361.167	16
361.626	16
362.086	12
362.545	17
363.005	17
363.464	16
363.924	19
364.383	18
364.843	22
365.303	23
365.762	19
366.222	18
366.682	22
367.142	22
367.601	21
368.061	18
368.521	24
368.981	22
369.441	28
369.901	25
370.361	21
370.821	22
371.282	24
371.742	25
372.202	30
372.662	27
373.123	26
373.583	29
374.043	35
374.504	28
374.964	28
375.425	29
375.885	28
376.346	35
376.806	36
377.267	28
377.728	37
378.188	39
378.649	35
379.11	37
379.571	36
380.032	40
380.493	37
380.954	46
381.414	38
381.876	43
382.337	44
382.798	48
383.259	53
383.72	49
384.181	48
384.642	52
385.104	56
385.565	58
386.026	61
386.488	63
386.949	64
387.411	64
387.872	66
388.334	68
388.795	75
389.257	76
389.719	71
390.181	71
390.642	76
391.104	79
391.566	81
392.028	87
392.49	88
392.952	87
393.414	90
393.876	96
394.338	89
394.8	94
395.262	92
395.724	97
396.186	104
396.648	100
397.111	103
397.573	107
398.035	105
398.498	111
398.96	109
399.423	109
399.885	116
400.348	120
400.81	120
401.273	120
401.736	117
402.198	132
402.661	136
403.124	128
403.587	139
404.049	141
404.512	143
404.975	146
405.438	146
405.901	152
406.364	149
406.827	151
407.29	150
407.754	147
408.217	151
408.68	153
409.143	163
409.607	165
410.07	162
410.533	164
410.997	167
411.46	170
411.924	178
412.387	176
412.851	176
413.314	186
413.778	188
414.242	187
414.705	196
415.169	198
415.633	195
416.097	195
416.561	198
417.024	204
417.488	198
417.952	204
418.416	201
418.88	195
419.344	203
419.809	206
420.273	210
420.737	210
421.201	215
421.665	219
422.13	224
422.594	231
423.059	232
423.523	240
423.987	235
424.452	243
424.916	248
425.381	259
425.846	258
426.31	267
426.775	263
427.24	273
427.704	271
428.169	273
428.634	273
429.099	275
429.564	274
430.029	274
430.494	280
430.959	279
431.424	276
431.889	286
432.354	291
432.819	287
433.284	301
433.75	301
434.215	314
434.68	317
435.146	316
435.611	331
436.077	343
436.542	343
437.008	361
437.473	365
437.939	363
438.404	374
438.87	385
439.336	377
439.801	376
440.267	385
440.733	391
441.199	390
441.665	394
442.131	404
442.596	401
443.062	412
443.529	432
443.995	439
444.461	443
444.927	468
445.393	465
445.859	488
446.325	495
446.792	526
447.258	524
447.724	539
448.191	560
448.657	561
449.124	575
449.59	566
450.057	611
450.523	615
450.99	623
451.457	616
451.923	635
452.39	622
452.857	643
453.324	631
453.791	648
454.257	651
454.724	661
455.191	661
455.658	662
456.125	684
456.592	670
457.059	687
457.527	693
457.994	716
458.461	725
458.928	728
459.396	729
459.863	753
460.33	748
460.798	755
461.265	767
461.732	758
462.2	777
462.668	769
463.135	785
463.603	768
464.07	784
464.538	768
465.006	786
465.474	775
465.941	777
466.409	778
466.877	768
467.345	790
467.813	778
468.281	793
468.749	803
469.217	803
469.685	818
470.153	839
470.621	826
471.09	830
471.558	881
472.026	874
472.494	899
472.963	906
473.431	935
473.9	954
474.368	972
474.837	984
475.305	999
475.774	1014
476.242	1044
476.711	1045
477.18	1072
477.648	1069
478.117	1074
478.586	1073
479.055	1082
479.524	1088
479.993	1087
480.462	1082
480.93	1084
481.399	1086
481.869	1097
482.338	1083
482.807	1106
483.276	1098
483.745	1100
484.214	1131
484.684	1150
485.153	1160
485.622	1162
486.092	1198
486.561	1179
487.031	1222
487.5	1244
487.97	1252
488.439	1286
488.909	1311
489.378	1365
489.848	1371
490.318	1391
490.787	1455
491.257	1473
491.727	1476
492.197	1503
492.667	1503
493.137	1524
493.607	1531
494.077	1549
494.547	1529
495.017	1518
495.487	1551
495.957	1586
496.427	1554
496.897	1551
497.368	1578
497.838	1565
498.308	1585
498.779	1612
499.249	1614
499.719	1634
500.19	1654
500.66	1661
501.131	1665
501.602	1703
502.072	1703
502.543	1724
503.014	1789
503.484	1771
503.955	1828
504.426	1897
504.897	1908
505.368	1937
505.838	1988
506.309	2028
506.78	2102
507.251	2137
507.722	2183
508.194	2230
508.665	2261
509.136	2258
509.607	2340
510.078	2347
510.549	2364
511.021	2425
511.492	2425
511.964	2460
512.435	2488
512.906	2468
513.378	2492
513.849	2543
514.321	2556
514.793	2575
515.264	2628
515.736	2645
516.208	2687
516.679	2703
517.151	2728
517.623	2751
518.095	2800
518.567	2827
519.038	2872
519.51	2864
519.982	2893
520.454	2931
520.927	2983
521.399	3030
521.871	3065
522.343	3069
522.815	3092
523.287	3089
523.76	3111
524.232	3151
524.704	3183
525.177	3130
525.649	3153
526.122	3183
526.594	3118
527.067	3191
527.539	3242
528.012	3216
528.484	3205
528.957	3226
529.43	3220
529.903	3211
530.375	3320
530.848	3246
531.321	3298
531.794	3306
532.267	3379
532.74	3315
533.213	3322
533.686	3375
534.159	3367
534.632	3436
535.105	3433
535.578	3508
536.051	3519
536.525	3524
536.998	3536
537.471	3620
537.945	3558
538.418	3616
538.891	3637
539.365	3688
539.838	3704
540.312	3689
540.786	3711
541.259	3728
541.733	3786
542.206	3790
542.68	3728
543.154	3742
543.628	3755
544.101	3820
544.575	3759
545.049	3670
545.523	3739
545.997	3730
546.471	3753
546.945	3735
547.419	3789
547.893	3661
548.367	3736
548.842	3695
549.316	3728
549.79	3744
550.264	3716
550.739	3762
551.213	3772
551.687	3785
552.162	3803
552.636	3767
553.111	3770
553.585	3877
554.06	3824
554.534	3882
555.009	3879
555.484	3944
555.958	3983
556.433	3976
556.908	4049
557.383	4005
557.858	4093
558.333	4098
558.807	4078
559.282	4137
559.757	4228
560.232	4230
560.708	4152
561.183	4140
561.658	4201
562.133	4195
562.608	4168
563.083	4275
563.559	4183
564.034	4187
564.509	4189
564.985	4198
565.46	4164
565.936	4233
566.411	4230
566.887	4166
567.362	4202
567.838	4223
568.313	4257
568.789	4189
569.265	4199
569.74	4223
570.216	4189
570.692	4242
571.168	4244
571.644	4244
572.12	4245
572.596	4279
573.071	4286
573.547	4427
574.024	4480
574.5	4512
574.976	4528
575.452	4595
575.928	4659
576.404	4668
576.881	4804
577.357	4719
577.833	4749
578.31	4879
578.786	4924
579.262	4977
579.739	4917
580.215	5081
580.692	5103
581.169	5035
581.645	5044
582.122	5189
582.598	5172
583.075	5160
583.552	5167
584.029	5161
584.506	5144
584.982	5112
585.459	5221
585.936	5137
586.413	5208
586.89	5303
587.367	5257
587.844	5345
588.321	5303
588.799	5314
589.276	5267
589.753	5340
590.23	5373
590.707	5375
591.185	5401
591.662	5416
592.139	5464
592.617	5529
593.094	5502
593.572	5537
594.049	5589
594.527	5615
595.004	5638
595.482	5817
595.96	5763
596.437	5735
596.915	5859
597.393	5779
597.871	5933
598.349	5871
598.826	5974
599.304	5986
599.782	6118
600.26	6077
600.738	6195
601.216	6178
601.694	6204
602.173	6231
602.651	6265
603.129	6222
603.607	6258
604.085	6269
604.564	6308
605.042	6330
605.52	6280
605.999	6414
606.477	6241
606.956	6282
607.434	6353
607.913	6424
608.391	6402
608.87	6337
609.348	6251
609.827	6284
610.306	6335
610.785	6333
611.263	6330
611.742	6293
612.221	6205
612.7	6290
613.179	6336
613.658	6248
614.137	6340
614.616	6414
615.095	6309
615.574	6393
616.053	6430
616.532	6367
617.011	6381
617.491	6431
617.97	6393
618.449	6472
618.928	6532
619.408	6475
619.887	6527
620.367	6569
620.846	6631
621.326	6576
621.805	6722
622.285	6730
622.764	6803
623.244	6810
623.724	6830
624.203	6879
624.683	6750
625.163	6877
625.643	6852
626.123	6808
626.602	6961
627.082	6825
627.562	6811
628.042	6937
628.522	6882
629.002	6835
629.482	6875
629.963	6877
630.443	6804
630.923	6801
631.403	6838
631.883	6834
632.364	6871
632.844	6829
633.324	6853
633.805	6828
634.285	6728
634.766	6702
635.246	6716
635.727	6746
636.207	6763
636.688	6727
637.168	6692
637.649	6673
638.13	6693
638.611	6747
639.091	6709
639.572	6663
640.053	6621
640.534	6662
641.015	6646
641.496	6554
641.977	6677
642.458	6619
642.939	6632
643.42	6642
643.901	6637
644.382	6733
644.863	6715
645.345	6688
645.826	6685
646.307	6691
646.788	6798
647.27	6702
647.751	6709
648.233	6769
648.714	6598
649.196	6773
649.677	6718
650.159	6716
650.64	6676
651.122	6786
651.603	6680
652.085	6753
652.567	6795
653.049	6737
653.53	6744
654.012	6850
654.494	6738
654.976	6823
655.458	6783
655.94	6751
656.422	6847
656.904	6716
657.386	6614
657.868	6625
658.35	6593
658.833	6626
659.315	6651
659.797	6541
660.279	6527
660.762	6547
661.244	6474
661.726	6443
662.209	6466
662.691	6475
663.174	6342
663.656	6381
664.139	6397
664.621	6351
665.104	6306
665.587	6383
666.069	6418
666.552	6392
667.035	6315
667.517	6347
668	6417
668.483	6408
668.966	6344
669.449	6317
669.932	6320
670.415	6377
670.898	6337
671.381	6359
671.864	6364
672.347	6272
672.83	6271
673.313	6270
673.797	6259
674.28	6371
674.763	6379
675.247	6385
675.73	6314
676.213	6356
676.697	6434
677.18	6440
677.664	6459
678.147	6435
678.631	6486
679.114	6569
679.598	6572
680.082	6623
680.565	6613
681.049	6573
681.533	6546
682.017	6582
682.5	6576
682.984	6583
683.468	6581
683.952	6478
684.436	6630
684.92	6543
685.404	6588
685.888	6616
686.372	6528
686.856	6542
687.341	6606
687.825	6515
688.309	6518
688.793	6557
689.278	6483
689.762	6556
690.246	6491
690.731	6493
691.215	6511
691.7	6354
692.184	6449
692.669	6409
693.153	6428
693.638	6312
694.122	6324
694.607	6394
695.092	6320
695.577	6375
696.061	6256
696.546	6285
697.031	6253
697.516	6307
698.001	6323
698.486	6296
698.971	6359
699.456	6191
699.941	6172
700.426	6161
700.911	6248
701.396	6224
701.881	6255
702.366	6205
702.852	6186
703.337	6181
703.822	6148
704.308	6153
704.793	6184
705.278	6189
705.764	6208
706.249	6156
706.735	6146
707.22	6209
707.706	6120
708.191	6215
708.677	6200
709.163	6137
709.648	6157
710.134	6271
710.62	6234
711.106	6245
711.592	6302
712.077	6223
712.563	6061
713.049	6040
713.535	6194
714.021	6191
714.507	6153
714.993	6074
715.479	6108
715.966	6035
716.452	6060
716.938	6071
717.424	5885
717.91	5997
718.397	5921
718.883	5899
719.369	5919
719.856	5843
720.342	5930
720.829	5843
721.315	5850
721.802	5795
722.288	5835
722.775	5613
723.262	5462
723.748	5694
724.235	5671
724.722	5750
725.208	5630
725.695	5632
726.182	5609
726.669	5563
727.156	5622
727.643	5579
728.13	5550
728.617	5468
729.104	5473
729.591	5450
730.078	5481
730.565	5478
731.052	5390
731.539	5401
732.027	5377
732.514	5290
733.001	5338
733.488	5297
733.976	5299
734.463	5274
734.951	5260
735.438	5301
735.926	5237
736.413	5284
736.901	5243
737.388	5277
737.876	5252
738.364	5228
738.851	5261
739.339	5269
739.827	5315
740.314	5130
740.802	5157
741.29	5175
741.778	5101
742.266	5103
742.754	5129
743.242	5185
743.73	5105
744.218	5082
744.706	5034
745.194	5107
745.682	5083
746.17	5098
746.659	5095
747.147	4975
747.635	4981
748.123	4956
748.612	4883
749.1	4819
749.589	4852
750.077	4840
750.566	4821
751.054	4845
751.543	4867
752.031	4753
752.52	4718
753.008	4625
753.497	4653
753.986	4642
754.474	4638
754.963	4684
755.452	4577
755.941	4542
756.43	4534
756.919	4521
757.408	4477
757.896	4499
758.385	4533
758.875	4491
759.364	4437
759.853	4396
760.342	4311
760.831	4410
761.32	4367
761.809	4291
762.299	4330
762.788	4336
763.277	4341
763.767	4287
764.256	4298
764.745	4240
765.235	4312
765.724	4179
766.214	4250
766.703	4197
767.193	4128
767.683	4118
768.172	4029
768.662	4064
769.152	4041
769.641	4044
770.131	3929
770.621	3973
771.111	3927
771.601	3907
772.09	3861
772.58	3810
773.07	3829
773.56	3840
774.05	3755
774.54	3732
775.031	3697
775.521	3680
776.011	3692
776.501	3737
776.991	3643
777.482	3669
777.972	3589
778.462	3581
778.953	3600
779.443	3584
779.933	3574
780.424	3550
780.914	3591
781.405	3607
781.895	3577
782.386	3581
782.877	3558
783.367	3488
783.858	3470
784.349	3459
784.839	3430
785.33	3441
785.821	3439
786.312	3424
786.803	3430
787.293	3431
787.784	3392
788.275	3336
788.766	3319
789.257	3372
789.748	3289
790.24	3233
790.731	3244
791.222	3193
791.713	3183
792.204	3183
792.696	3092
793.187	3116
793.678	3086
794.169	2992
794.661	3030
795.152	2971
795.644	2942
796.135	2951
796.627	2960
797.118	2907
797.61	2883
798.101	2841
798.593	2877
799.085	2815
799.576	2839
800.068	2817
800.56	2833
801.052	2774
801.544	2763
802.035	2766
802.527	2727
803.019	2691
803.511	2673
804.003	2657
804.495	2672
804.987	2649
805.479	2599
805.971	2617
806.464	2616
806.956	2557
807.448	2536
807.94	2539
808.433	2521
808.925	2501
809.417	2490
809.91	2488
810.402	2414
810.894	2431
811.387	2466
811.879	2431
812.372	2439
812.865	2395
813.357	2378
813.85	2365
814.342	2349
814.835	2343
815.328	2341
815.821	2297
816.313	2294
816.806	2300
817.299	2275
817.792	2278
818.285	2236
818.778	2276
819.271	2260
819.764	2227
820.257	2237
820.75	2241
821.243	2242
821.736	2207
822.229	2233
822.722	2211
823.216	2259
