Data from lamp4helium_sterk_Subt2__48__148.txt Node

Date: Wed Apr 09 11:07:00 CEST 2025
User: fys-lab-0081
Spectrometer: S04999
Trigger mode: 0
Resolution mode: 1024 pixels
Integration Time (sec): 1.000000E-1
Scans to average: 1
Nonlinearity correction enabled: false
Boxcar width: 0
Baseline correction enabled: true
XAxis mode: Wavelengths
Number of Pixels in Spectrum: 1024
>>>>>Begin Spectral Data<<<<<
336.42	7
336.877	7
337.334	3
337.792	3
338.249	8
338.706	5
339.164	7
339.621	4
340.079	5
340.536	3
340.994	7
341.452	6
341.909	12
342.367	2
342.825	0
343.283	8
343.741	3
344.198	3
344.656	6
345.114	4
345.572	11
346.03	4
346.488	5
346.947	2
347.405	7
347.863	3
348.321	3
348.779	8
349.238	2
349.696	13
350.154	5
350.613	4
351.071	10
351.53	15
351.988	12
352.447	10
352.905	3
353.364	11
353.823	13
354.282	10
354.74	5
355.199	12
355.658	13
356.117	12
356.576	11
357.035	8
357.494	13
357.953	12
358.412	12
358.871	13
359.33	9
359.789	11
360.249	13
360.708	12
361.167	15
361.626	16
362.086	15
362.545	14
363.005	14
363.464	16
363.924	20
364.383	16
364.843	15
365.303	22
365.762	21
366.222	21
366.682	19
367.142	25
367.601	21
368.061	19
368.521	22
368.981	19
369.441	25
369.901	25
370.361	26
370.821	20
371.282	25
371.742	23
372.202	25
372.662	27
373.123	25
373.583	25
374.043	33
374.504	25
374.964	29
375.425	28
375.885	29
376.346	33
376.806	37
377.267	32
377.728	37
378.188	39
378.649	36
379.11	37
379.571	33
380.032	39
380.493	40
380.954	43
381.414	43
381.876	39
382.337	42
382.798	51
383.259	50
383.72	50
384.181	47
384.642	56
385.104	60
385.565	64
386.026	64
386.488	61
386.949	65
387.411	64
387.872	72
388.334	71
388.795	74
389.257	75
389.719	73
390.181	71
390.642	77
391.104	75
391.566	81
392.028	83
392.49	90
392.952	90
393.414	91
393.876	92
394.338	86
394.8	93
395.262	94
395.724	102
396.186	102
396.648	101
397.111	104
397.573	110
398.035	105
398.498	109
398.96	112
399.423	112
399.885	117
400.348	118
400.81	119
401.273	121
401.736	121
402.198	134
402.661	136
403.124	131
403.587	144
404.049	142.5
404.512	141
404.975	140
405.438	147
405.901	158
406.364	156
406.827	151
407.29	157
407.754	151
408.217	155
408.68	151
409.143	160
409.607	163
410.07	166
410.533	164
410.997	167
411.46	169
411.924	176
412.387	177
412.851	180
413.314	184
413.778	181
414.242	187
414.705	198
415.169	195
415.633	195
416.097	194
416.561	198
417.024	204
417.488	202
417.952	205
418.416	204
418.88	201
419.344	198
419.809	206
420.273	208
420.737	205
421.201	213
421.665	220
422.13	225
422.594	233
423.059	231
423.523	239
423.987	238
424.452	246
424.916	247
425.381	258
425.846	254
426.31	268
426.775	269
427.24	274
427.704	266
428.169	278
428.634	279
429.099	278
429.564	273
430.029	279
430.494	276
430.959	279
431.424	275
431.889	288
432.354	296
432.819	288
433.284	305
433.75	302
434.215	316
434.68	318
435.146	320
435.611	332
436.077	348
436.542	345
437.008	360
437.473	364
437.939	366
438.404	376
438.87	387
439.336	374
439.801	377
440.267	385
440.733	394
441.199	391
441.665	389
442.131	405
442.596	396
443.062	413
443.529	436
443.995	437
444.461	448
444.927	469
445.393	472
445.859	486
446.325	495
446.792	529
447.258	524
447.724	541
448.191	557
448.657	558
449.124	582
449.59	570
450.057	607
450.523	615
450.99	625
451.457	619
451.923	634
452.39	624
452.857	645
453.324	633
453.791	646
454.257	651
454.724	660
455.191	660
455.658	664
456.125	685
456.592	674
457.059	685
457.527	693
457.994	718
458.461	723
458.928	735
459.396	731
459.863	755
460.33	749
460.798	756
461.265	768
461.732	759
462.2	780
462.668	773
463.135	789
463.603	764
464.07	793
464.538	770
465.006	790
465.474	775
465.941	780
466.409	789
466.877	775
467.345	794
467.813	775
468.281	790
468.749	804
469.217	804
469.685	818
470.153	833
470.621	836
471.09	836
471.558	876
472.026	872
472.494	898
472.963	905
473.431	934
473.9	955
474.368	980
474.837	990
475.305	999
475.774	1021
476.242	1050
476.711	1054
477.18	1075
477.648	1062
478.117	1080
478.586	1068
479.055	1084
479.524	1092
479.993	1089
480.462	1086
480.93	1089
481.399	1086
481.869	1098
482.338	1089
482.807	1109
483.276	1103
483.745	1099
484.214	1137
484.684	1157
485.153	1163
485.622	1168
486.092	1204
486.561	1179
487.031	1229
487.5	1249
487.97	1255
488.439	1290
488.909	1321
489.378	1366
489.848	1374
490.318	1398
490.787	1462
491.257	1478
491.727	1482
492.197	1509
492.667	1507
493.137	1529
493.607	1533
494.077	1553
494.547	1530
495.017	1522
495.487	1549
495.957	1593
496.427	1558
496.897	1551
497.368	1576
497.838	1570
498.308	1596
498.779	1615
499.249	1621
499.719	1639
500.19	1664
500.66	1667
501.131	1676
501.602	1703
502.072	1706
502.543	1734
503.014	1795
503.484	1774
503.955	1833
504.426	1900
504.897	1905
505.368	1949
505.838	1995
506.309	2042
506.78	2100
507.251	2145
507.722	2184
508.194	2226
508.665	2266
509.136	2270
509.607	2337
510.078	2344
510.549	2366
511.021	2427
511.492	2434
511.964	2468
512.435	2498
512.906	2472
513.378	2492
513.849	2542
514.321	2561
514.793	2586
515.264	2623
515.736	2652
516.208	2703
516.679	2718
517.151	2732
517.623	2762
518.095	2811
518.567	2826
519.038	2880
519.51	2878
519.982	2904
520.454	2941
520.927	2992
521.399	3035
521.871	3068
522.343	3082
522.815	3100
523.287	3094
523.76	3113
524.232	3159
524.704	3186
525.177	3136
525.649	3162
526.122	3194
526.594	3121
527.067	3197
527.539	3238
528.012	3231
528.484	3203
528.957	3228
529.43	3228
529.903	3219
530.375	3326
530.848	3259
531.321	3305
531.794	3311
532.267	3380
532.74	3336
533.213	3324
533.686	3389
534.159	3369
534.632	3445
535.105	3442
535.578	3518
536.051	3513
536.525	3537
536.998	3533
537.471	3628
537.945	3571
538.418	3630
538.891	3653
539.365	3690
539.838	3721
540.312	3690
540.786	3727
541.259	3736
541.733	3791
542.206	3800
542.68	3744
543.154	3748
543.628	3765
544.101	3827
544.575	3777
545.049	3672
545.523	3752
545.997	3742
546.471	3764
546.945	3742
547.419	3792
547.893	3670
548.367	3742
548.842	3701
549.316	3724
549.79	3743
550.264	3717
550.739	3770
551.213	3783
551.687	3788
552.162	3809
552.636	3778
553.111	3775
553.585	3889
554.06	3824
554.534	3910
555.009	3884
555.484	3954
555.958	3992
556.433	3995
556.908	4053
557.383	4016
557.858	4100
558.333	4108
558.807	4096
559.282	4145
559.757	4256
560.232	4240
560.708	4160
561.183	4152
561.658	4225
562.133	4212
562.608	4168
563.083	4284
563.559	4190
564.034	4204
564.509	4189
564.985	4214
565.46	4170
565.936	4245
566.411	4242
566.887	4183
567.362	4216
567.838	4219
568.313	4264
568.789	4197
569.265	4207
569.74	4225
570.216	4185
570.692	4249
571.168	4249
571.644	4263
572.12	4260
572.596	4281
573.071	4299
573.547	4440
574.024	4493
574.5	4525
574.976	4535
575.452	4597
575.928	4667
576.404	4684
576.881	4810
577.357	4741
577.833	4768
578.31	4886
578.786	4924
579.262	5004
579.739	4940
580.215	5084
580.692	5106
581.169	5049
581.645	5050
582.122	5195
582.598	5195
583.075	5168
583.552	5186
584.029	5175
584.506	5159
584.982	5128
585.459	5232
585.936	5152
586.413	5217
586.89	5312
587.367	5272
587.844	5363
588.321	5319
588.799	5334
589.276	5273
589.753	5348
590.23	5391
590.707	5382
591.185	5402
591.662	5422
592.139	5482
592.617	5551
593.094	5524
593.572	5568
594.049	5596
594.527	5632
595.004	5654
595.482	5831
595.96	5770
596.437	5734
596.915	5885
597.393	5798
597.871	5944
598.349	5888
598.826	5986
599.304	6000
599.782	6129
600.26	6089
600.738	6214
601.216	6182
601.694	6220
602.173	6246
602.651	6276
603.129	6235
603.607	6274
604.085	6285
604.564	6311
605.042	6344
605.52	6295
605.999	6426
606.477	6259
606.956	6289
607.434	6364.5
607.913	6440
608.391	6413
608.87	6358
609.348	6266
609.827	6301
610.306	6345
610.785	6352
611.263	6334
611.742	6295
612.221	6220
612.7	6306
613.179	6346
613.658	6263
614.137	6357
614.616	6421
615.095	6323
615.574	6416
616.053	6440
616.532	6377
617.011	6410
617.491	6440
617.97	6409
618.449	6488
618.928	6542
619.408	6499
619.887	6545
620.367	6587
620.846	6644
621.326	6587
621.805	6730
622.285	6750
622.764	6810
623.244	6825
623.724	6842
624.203	6901
624.683	6768
625.163	6915
625.643	6873
626.123	6812
626.602	6974
627.082	6848
627.562	6830
628.042	6940
628.522	6892
629.002	6855
629.482	6892
629.963	6875
630.443	6805
630.923	6810
631.403	6844
631.883	6853
632.364	6877
632.844	6856
633.324	6859
633.805	6841
634.285	6747
634.766	6718
635.246	6737
635.727	6757
636.207	6766
636.688	6742
637.168	6712
637.649	6683
638.13	6704
638.611	6755
639.091	6722
639.572	6680
640.053	6630
640.534	6676
641.015	6662
641.496	6566
641.977	6699
642.458	6621
642.939	6642
643.42	6655
643.901	6662
644.382	6752
644.863	6721
645.345	6701
645.826	6699
646.307	6707
646.788	6813
647.27	6712
647.751	6721
648.233	6783
648.714	6619
649.196	6774
649.677	6742
650.159	6740
650.64	6680
651.122	6803
651.603	6696
652.085	6755
652.567	6812
653.049	6761
653.53	6766
654.012	6867
654.494	6761
654.976	6821
655.458	6793
655.94	6777
656.422	6861
656.904	6714
657.386	6639
657.868	6642
658.35	6606
658.833	6651
659.315	6667
659.797	6559
660.279	6547
660.762	6576
661.244	6494
661.726	6456
662.209	6490
662.691	6488
663.174	6357
663.656	6391
664.139	6409
664.621	6357
665.104	6316
665.587	6392
666.069	6426
666.552	6417
667.035	6328
667.517	6364
668	6432
668.483	6433
668.966	6361
669.449	6335
669.932	6339
670.415	6390
670.898	6344
671.381	6375
671.864	6372
672.347	6283
672.83	6288
673.313	6283
673.797	6276
674.28	6388
674.763	6391
675.247	6398
675.73	6330
676.213	6372
676.697	6445
677.18	6457
677.664	6468
678.147	6452
678.631	6513
679.114	6578
679.598	6573
680.082	6627
680.565	6618
681.049	6592
681.533	6568
682.017	6611
682.5	6579
682.984	6593
683.468	6594
683.952	6501
684.436	6636
684.92	6568
685.404	6613
685.888	6620
686.372	6559
686.856	6564
687.341	6619
687.825	6516
688.309	6538
688.793	6570
689.278	6500
689.762	6573
690.246	6514
690.731	6501
691.215	6522
691.7	6364
692.184	6449
692.669	6422
693.153	6432
693.638	6326
694.122	6339
694.607	6401
695.092	6327
695.577	6389
696.061	6276
696.546	6294
697.031	6262
697.516	6313
698.001	6331
698.486	6309
698.971	6374
699.456	6207
699.941	6187
700.426	6181
700.911	6256
701.396	6233
701.881	6273
702.366	6222
702.852	6207
703.337	6200
703.822	6158
704.308	6164
704.793	6189
705.278	6209
705.764	6217
706.249	6171
706.735	6159
707.22	6220
707.706	6137
708.191	6222
708.677	6204
709.163	6148
709.648	6176
710.134	6279
710.62	6242
711.106	6252
711.592	6317
712.077	6239
712.563	6063
713.049	6068
713.535	6206
714.021	6198
714.507	6168
714.993	6084
715.479	6119
715.966	6033
716.452	6078
716.938	6082
717.424	5883
717.91	6009
718.397	5944
718.883	5908
719.369	5933
719.856	5865
720.342	5932
720.829	5852
721.315	5861
721.802	5817
722.288	5846
722.775	5615
723.262	5468
723.748	5712
724.235	5685
724.722	5763
725.208	5645
725.695	5639
726.182	5622
726.669	5578
727.156	5645
727.643	5594
728.13	5565
728.617	5475
729.104	5488
729.591	5447
730.078	5499
730.565	5493
731.052	5399
731.539	5415
732.027	5385
732.514	5301
733.001	5340
733.488	5305
733.976	5308
734.463	5284
734.951	5274
735.438	5322
735.926	5250
736.413	5300
736.901	5256
737.388	5288
737.876	5271
738.364	5227
738.851	5259
739.339	5273
739.827	5337
740.314	5141
740.802	5164
741.29	5183
741.778	5109
742.266	5122
742.754	5141
743.242	5198
743.73	5103
744.218	5085
744.706	5038
745.194	5118
745.682	5090
746.17	5100
746.659	5108
747.147	4980
747.635	4989
748.123	4967
748.612	4885
749.1	4837
749.589	4855
750.077	4849
750.566	4835
751.054	4862
751.543	4875
752.031	4764
752.52	4727
753.008	4636
753.497	4659
753.986	4653
754.474	4658
754.963	4703
755.452	4597
755.941	4551
756.43	4537
756.919	4524
757.408	4487
757.896	4513
758.385	4545
758.875	4493
759.364	4444
759.853	4402
760.342	4317
760.831	4414
761.32	4378
761.809	4306
762.299	4326
762.788	4337
763.277	4353
763.767	4297
764.256	4308
764.745	4253
765.235	4311
765.724	4184
766.214	4259
766.703	4205
767.193	4127
767.683	4123
768.172	4043
768.662	4065
769.152	4056
769.641	4053
770.131	3936
770.621	3984
771.111	3925
771.601	3906
772.09	3868
772.58	3815
773.07	3837
773.56	3849
774.05	3760
774.54	3733
775.031	3704
775.521	3686
776.011	3703
776.501	3736
776.991	3645
777.482	3682
777.972	3592
778.462	3589
778.953	3604
779.443	3591
779.933	3592
780.424	3560
780.914	3601
781.405	3609
781.895	3580
782.386	3581
782.877	3564
783.367	3500
783.858	3476
784.349	3473
784.839	3434
785.33	3450
785.821	3453
786.312	3422
786.803	3438
787.293	3446
787.784	3392
788.275	3355
788.766	3323
789.257	3363
789.748	3283
790.24	3239
790.731	3256
791.222	3197
791.713	3177
792.204	3190
792.696	3105
793.187	3129
793.678	3094
794.169	3000
794.661	3036
795.152	2983
795.644	2948
796.135	2954
796.627	2970
797.118	2907
797.61	2889
798.101	2846
798.593	2878
799.085	2825
799.576	2848
800.068	2828
800.56	2840
801.052	2768
801.544	2777
802.035	2782
802.527	2741
803.019	2698
803.511	2679
804.003	2662
804.495	2673
804.987	2655
805.479	2607
805.971	2623
806.464	2621
806.956	2553
807.448	2541
807.94	2542
808.433	2530
808.925	2509
809.417	2490
809.91	2481
810.402	2421
810.894	2445
811.387	2473
811.879	2435
812.372	2439
812.865	2400
813.357	2386
813.85	2376
814.342	2339
814.835	2350
815.328	2342
815.821	2301
816.313	2300
816.806	2299
817.299	2268
817.792	2290
818.285	2246
818.778	2278
819.271	2265
819.764	2236
820.257	2240
820.75	2239
821.243	2245
821.736	2211
822.229	2236
822.722	2222
823.216	2257
